Data from R_1_S_MAYP1165941__0__19-57-57-997.txt Node

Date: Wed May 31 19:57:57 JST 2023
User: takis
Spectrometer: MAYP116594
Trigger mode: 0
Integration Time (sec): 5.000000E-2
Scans to average: 100
Electric dark correction enabled: true
Nonlinearity correction enabled: false
Boxcar width: 0
XAxis mode: Wavelengths
Number of Pixels in Spectrum: 2068
>>>>>Begin Spectral Data<<<<<
199.712	842.64
200.181	-156.02
200.65	30.42
201.119	-11.47
201.587	107.61
202.056	106.44
202.525	115.36
202.993	124.9
203.462	122.92
203.93	110.19
204.399	120.53
204.867	107.95
205.336	112.29
205.804	113.37
206.273	107.9
206.741	98.36
207.21	101.01
207.678	106.74
208.146	104.95
208.615	105.36
209.083	105.36
209.551	114.12
210.02	110.22
210.488	111.41
210.956	119.34
211.424	114.74
211.893	122.08
212.361	114.23
212.829	104.18
213.297	120.59
213.765	110.67
214.233	114.93
214.701	113.28
215.169	104.21
215.637	117.15
216.105	106.25
216.573	131.26
217.041	107.22
217.509	111.41
217.977	133.58
218.445	115.14
218.913	122.39
219.381	115.33
219.848	115.95
220.316	123.15
220.784	121
221.252	110.49
221.719	115.46
222.187	113.97
222.655	115.88
223.122	117.34
223.59	122.47
224.058	125.31
224.525	106.55
224.993	112.17
225.46	122.35
225.928	111.49
226.395	124.46
226.863	118.53
227.33	122.24
227.798	123.89
228.265	125.74
228.732	113.24
229.2	102.29
229.667	119.4
230.134	114.08
230.602	107.48
231.069	125.79
231.536	116.12
232.003	108.73
232.47	124.44
232.938	109.68
233.405	114.02
233.872	114.29
234.339	112
234.806	113.57
235.273	115.94
235.74	121.74
236.207	117.54
236.674	122.25
237.141	121.23
237.608	109.2
238.075	110.99
238.542	100.04
239.009	118.55
239.476	116.38
239.942	123.7
240.409	114.72
240.876	111.77
241.343	114.39
241.809	119.02
242.276	135.64
242.743	106.92
243.21	113.3
243.676	111.58
244.143	128.66
244.609	124.27
245.076	117.16
245.542	109.73
246.009	110.69
246.476	120.55
246.942	114.52
247.408	106.93
247.875	116.68
248.341	117.14
248.808	115.98
249.274	119.34
249.74	122.9
250.207	131
250.673	117.98
251.139	127.72
251.606	120.15
252.072	131.9
252.538	115.09
253.004	115.59
253.47	124.02
253.936	122.92
254.403	124.99
254.869	121.39
255.335	113.03
255.801	117.39
256.267	110.74
256.733	122.16
257.199	124.48
257.665	108.7
258.131	107.12
258.596	124.23
259.062	125.82
259.528	114.83
259.994	112.22
260.46	116.59
260.926	107.58
261.391	107.86
261.857	121.8
262.323	119.52
262.789	116.22
263.254	126.97
263.72	114.2
264.185	116.87
264.651	124.7
265.117	119.72
265.582	123.24
266.048	122.24
266.513	114.33
266.979	113.7
267.444	111.76
267.91	111.97
268.375	113.36
268.84	96.4
269.306	120.78
269.771	111.95
270.236	113.27
270.702	128.63
271.167	110.92
271.632	124.5
272.098	116.77
272.563	112.77
273.028	111.47
273.493	109.96
273.958	119.73
274.423	114.67
274.888	125.87
275.353	109.71
275.819	110.7
276.284	109.32
276.749	118.58
277.214	128.11
277.678	129.33
278.143	109.43
278.608	116.02
279.073	115.39
279.538	123.76
280.003	112.15
280.468	122.25
280.932	115.04
281.397	118.94
281.862	121.14
282.327	112.73
282.791	124.82
283.256	113.88
283.721	115.24
284.185	121.12
284.65	119.85
285.114	115.55
285.579	113.77
286.044	118.58
286.508	108.1
286.973	122.44
287.437	128.7
287.901	111.15
288.366	134.4
288.83	118.66
289.295	123.19
289.759	104.96
290.223	122.29
290.687	118.72
291.152	129.6
291.616	118.64
292.08	120.36
292.544	118.98
293.009	120.54
293.473	136.02
293.937	124.96
294.401	116.41
294.865	130.21
295.329	121.01
295.793	107.04
296.257	111.46
296.721	111.79
297.185	120.76
297.649	107.56
298.113	113.68
298.577	114.21
299.041	116
299.505	127.47
299.968	106.17
300.432	130.17
300.896	120.45
301.36	130.45
301.823	126.29
302.287	109.16
302.751	113.77
303.214	109.68
303.678	121.89
304.142	119.15
304.605	107.38
305.069	126.88
305.532	135.11
305.996	125.25
306.459	121.47
306.923	126.82
307.386	109.24
307.85	109.53
308.313	111.32
308.776	112.14
309.24	117.47
309.703	118.82
310.166	126.03
310.63	116.64
311.093	113.81
311.556	129
312.019	110.3
312.482	111.54
312.946	115.97
313.409	121.13
313.872	111
314.335	120.98
314.798	115.03
315.261	130.33
315.724	106.9
316.187	123.72
316.65	109.98
317.113	107.44
317.576	121.77
318.039	117.36
318.502	127.62
318.964	111.41
319.427	116.78
319.89	111.73
320.353	127.12
320.816	110.54
321.278	121.35
321.741	115.16
322.204	112.13
322.666	116.07
323.129	114.14
323.592	120.78
324.054	114.32
324.517	118.09
324.979	104.96
325.442	109.95
325.904	116.39
326.367	125.98
326.829	109.13
327.292	124.57
327.754	103.85
328.216	110.39
328.679	115.43
329.141	113.72
329.603	130.09
330.066	117.82
330.528	113.33
330.99	109.94
331.452	121.44
331.914	113.77
332.377	117.08
332.839	112.15
333.301	118.26
333.763	125.92
334.225	115.22
334.687	108.77
335.149	123.13
335.611	104.15
336.073	109.4
336.535	118.39
336.997	121.62
337.459	110.91
337.92	124.23
338.382	123.24
338.844	127.11
339.306	118.03
339.768	111.05
340.229	130.52
340.691	116.31
341.153	123.07
341.614	111.99
342.076	101.81
342.538	107.91
342.999	112.16
343.461	116.38
343.922	128.03
344.384	120.48
344.845	116.58
345.307	109.21
345.768	149.59
346.23	116.18
346.691	104.11
347.153	125.01
347.614	111.88
348.075	106.63
348.536	112.81
348.998	113.13
349.459	117.15
349.92	149.8
350.381	112.33
350.843	126.24
351.304	116.27
351.765	129.13
352.226	99.7
352.687	111.22
353.148	109.33
353.609	122.7
354.07	118.04
354.531	119.21
354.992	111.28
355.453	116.98
355.914	125.76
356.375	128.83
356.836	109.41
357.297	110.58
357.757	111.19
358.218	105.78
358.679	109.55
359.14	116.04
359.6	112.59
360.061	126.49
360.522	115.51
360.982	114.98
361.443	110.77
361.904	110.18
362.364	119.31
362.825	124.13
363.285	130.61
363.746	128.2
364.206	124.46
364.667	114.01
365.127	115.92
365.588	120.22
366.048	120.37
366.508	124.36
366.969	110.41
367.429	121.14
367.889	122.74
368.349	116.41
368.81	117.81
369.27	121.66
369.73	127.27
370.19	110.81
370.65	121.51
371.11	115.39
371.57	120.75
372.031	125.9
372.491	135.51
372.951	117.74
373.411	135.04
373.871	119.82
374.33	130.44
374.79	106.06
375.25	124.13
375.71	146.84
376.17	120.34
376.63	125.44
377.09	140.71
377.549	122.21
378.009	115.87
378.469	131.91
378.928	132.57
379.388	112.6
379.848	134.98
380.307	137.37
380.767	143.01
381.227	125.32
381.686	139.98
382.146	162.53
382.605	149.55
383.065	152.36
383.524	138.43
383.983	166.16
384.443	151.81
384.902	144.96
385.361	161.03
385.821	143.19
386.28	170.23
386.739	167.78
387.199	161.32
387.658	172.54
388.117	152.9
388.576	166.76
389.035	170.34
389.494	157.48
389.954	175.13
390.413	176.71
390.872	164.17
391.331	193.57
391.79	181.07
392.249	180.62
392.708	177.75
393.166	189.04
393.625	197.69
394.084	208.06
394.543	185.96
395.002	208.01
395.461	198.29
395.919	198.28
396.378	196.42
396.837	211.21
397.296	204.87
397.754	229.96
398.213	216.15
398.672	245.22
399.13	229.46
399.589	217.47
400.047	221.38
400.506	220.86
400.964	223.88
401.423	207.67
401.881	220.63
402.34	223.27
402.798	227.45
403.256	230.48
403.715	231.74
404.173	231.56
404.631	221.07
405.09	238.27
405.548	219.65
406.006	232.22
406.464	236.16
406.923	244.21
407.381	235.59
407.839	235.42
408.297	260.11
408.755	249.06
409.213	241.04
409.671	231.37
410.129	258.05
410.587	270.29
411.045	255.73
411.503	261.5
411.961	251.96
412.419	258.4
412.876	260.27
413.334	247.91
413.792	252.01
414.25	267.23
414.708	267.87
415.165	278.33
415.623	290.82
416.081	274.49
416.538	300.06
416.996	285.42
417.454	297.21
417.911	300.84
418.369	304.64
418.826	315.01
419.284	292.78
419.741	303.29
420.199	308.77
420.656	339.84
421.113	335.37
421.571	325.17
422.028	336.86
422.485	337.31
422.943	361.46
423.4	350.33
423.857	352.55
424.314	358.6
424.772	369.96
425.229	381.22
425.686	384.73
426.143	385.34
426.6	410.41
427.057	408.56
427.514	406.45
427.971	427.74
428.428	434.23
428.885	440.32
429.342	450.63
429.799	473.78
430.256	463.48
430.713	488.23
431.17	478.26
431.627	489
432.083	507.1
432.54	502.78
432.997	514.32
433.454	528.6
433.91	534.78
434.367	555.17
434.824	570.84
435.28	573.3
435.737	584.63
436.193	592.44
436.65	604.21
437.106	619.07
437.563	632.61
438.019	655.43
438.476	664.69
438.932	671.73
439.388	682.29
439.845	698.94
440.301	703.95
440.757	712.08
441.214	729.23
441.67	740.09
442.126	748.84
442.582	751.96
443.039	777.81
443.495	775.14
443.951	793.24
444.407	794.66
444.863	830.03
445.319	838.16
445.775	836.88
446.231	870.42
446.687	877.32
447.143	895.05
447.599	915.78
448.055	937.53
448.511	947.61
448.967	953.59
449.422	977.44
449.878	991.12
450.334	992.12
450.79	1003.91
451.245	1021.81
451.701	1033.69
452.157	1046.38
452.612	1041.52
453.068	1054
453.524	1060.17
453.979	1083.71
454.435	1063.11
454.89	1088.07
455.346	1100.75
455.801	1103.47
456.257	1122.17
456.712	1122.22
457.168	1150.93
457.623	1169.3
458.078	1179.18
458.534	1189.94
458.989	1203.12
459.444	1233.68
459.899	1252.75
460.354	1328.02
460.81	1261.83
461.265	1295.1
461.72	1318.61
462.175	1346.31
462.63	1340.4
463.085	1369.5
463.54	1392.05
463.995	1419.08
464.45	1443.99
464.905	1469
465.36	1490.91
465.815	1497.37
466.27	1526.9
466.725	1543
467.18	1556.07
467.634	1563.94
468.089	1561.15
468.544	1587.91
468.999	1596.42
469.453	1610
469.908	1600.88
470.363	1594.94
470.817	1600.04
471.272	1609.58
471.726	1575.41
472.181	1567.96
472.635	1544.98
473.09	1546.41
473.544	1516
473.999	1495.39
474.453	1483.12
474.908	1488.79
475.362	1483.8
475.816	1476.4
476.271	1452.44
476.725	1442.76
477.179	1441.8
477.633	1455.39
478.087	1458.24
478.542	1469.03
478.996	1501.94
479.45	1496.41
479.904	1509.19
480.358	1515.07
480.812	1528.65
481.266	1529.73
481.72	1532.83
482.174	1535.43
482.628	1544.26
483.082	1552.85
483.536	1548.69
483.99	1548.19
484.444	1545.96
484.897	1534.04
485.351	1529.34
485.805	1515.57
486.259	1520.35
486.712	1538.24
487.166	1526.32
487.62	1529.52
488.073	1533.7
488.527	1538.78
488.981	1547.31
489.434	1553.08
489.888	1565.54
490.341	1572.62
490.795	1595.46
491.248	1595.09
491.701	1618.86
492.155	1608.18
492.608	1612.45
493.062	1604.8
493.515	1596.17
493.968	1593.04
494.421	1592.5
494.875	1578.28
495.328	1580.55
495.781	1586.82
496.234	1549.33
496.687	1546.34
497.14	1544.1
497.594	1536.92
498.047	1542.62
498.5	1533.25
498.953	1540.37
499.406	1537.69
499.859	1528.33
500.311	1549.25
500.764	1545.69
501.217	1548.25
501.67	1544.65
502.123	1554.84
502.576	1556.53
503.028	1574.94
503.481	1573.74
503.934	1568.54
504.387	1562.28
504.839	1566.39
505.292	1585.93
505.745	1578.61
506.197	1561.02
506.65	1587.79
507.102	1586.41
507.555	1585.99
508.007	1608.22
508.46	1583.86
508.912	1588.69
509.364	1602.03
509.817	1611.28
510.269	1608.59
510.721	1593.61
511.174	1600.22
511.626	1608.21
512.078	1623.53
512.531	1604.57
512.983	1614.88
513.435	1634.21
513.887	1625.54
514.339	1620.53
514.791	1625.01
515.243	1611.86
515.695	1603.63
516.147	1622.82
516.599	1617.72
517.051	1602.17
517.503	1611.84
517.955	1605.39
518.407	1607.72
518.859	1626.99
519.311	1593.71
519.762	1613.71
520.214	1599.78
520.666	1605.86
521.118	1604.11
521.569	1585.57
522.021	1599.12
522.473	1595.89
522.924	1573.99
523.376	1578.99
523.827	1585.28
524.279	1574.94
524.73	1560.23
525.182	1544.52
525.633	1557.15
526.085	1544.23
526.536	1550.61
526.987	1548.37
527.439	1534.09
527.89	1532.4
528.341	1515.68
528.793	1524.67
529.244	1510.74
529.695	1498.21
530.146	1502.4
530.597	1505.52
531.049	1482.36
531.5	1497.4
531.951	1490.33
532.402	1483.12
532.853	1477.78
533.304	1458.49
533.755	1476.87
534.206	1455.28
534.657	1470.79
535.108	1473.86
535.558	1442.83
536.009	1450.42
536.46	1443.81
536.911	1443.3
537.362	1455.31
537.812	1459.09
538.263	1449.6
538.714	1439.95
539.164	1440.89
539.615	1433.22
540.066	1450.53
540.516	1462.58
540.967	1465.91
541.417	1449.17
541.868	1445.37
542.318	1463.62
542.769	1463.33
543.219	1470.04
543.669	1471.65
544.12	1467.91
544.57	1501.82
545.02	1469.86
545.471	1500.8
545.921	1488.07
546.371	1488.15
546.821	1500.67
547.272	1512.44
547.722	1507.29
548.172	1530.41
548.622	1523.81
549.072	1524.79
549.522	1543.18
549.972	1544.05
550.422	1545.49
550.872	1558.98
551.322	1564.1
551.772	1566.55
552.222	1569.22
552.671	1583.86
553.121	1575.11
553.571	1615.37
554.021	1590.15
554.471	1602.59
554.92	1608.9
555.37	1618.68
555.82	1624.42
556.269	1617.13
556.719	1612.61
557.168	1608.61
557.618	1612.54
558.068	1615.44
558.517	1655
558.967	1635.57
559.416	1637.5
559.865	1637.94
560.315	1631.07
560.764	1604.9
561.213	1607.94
561.663	1619.26
562.112	1609.49
562.561	1619.21
563.011	1605.44
563.46	1607.46
563.909	1598.9
564.358	1606.89
564.807	1586.49
565.256	1592
565.705	1591.11
566.154	1608.82
566.603	1561.1
567.052	1566.72
567.501	1564.36
567.95	1559.75
568.399	1558.25
568.848	1549.73
569.297	1544.2
569.746	1526.73
570.195	1520.22
570.643	1526.24
571.092	1527.58
571.541	1515.5
571.989	1511.29
572.438	1487.43
572.887	1499.03
573.335	1502.01
573.784	1489.61
574.232	1487.55
574.681	1478.2
575.129	1485.38
575.578	1493.73
576.026	1484.74
576.475	1483.45
576.923	1493.13
577.372	1487.64
577.82	1493.89
578.268	1510.44
578.716	1507.37
579.165	1521.75
579.613	1536.38
580.061	1552.88
580.509	1557.02
580.957	1575.37
581.406	1587.07
581.854	1588.84
582.302	1613.67
582.75	1632.59
583.198	1639.12
583.646	1656.34
584.094	1659.51
584.542	1697.78
584.99	1683.2
585.437	1699.07
585.885	1720.78
586.333	1746.71
586.781	1745.25
587.229	1764.09
587.676	1774.22
588.124	1770.87
588.572	1794.28
589.019	1801.17
589.467	1800.92
589.915	1811.86
590.362	1808.74
590.81	1827.84
591.257	1827.57
591.705	1856.87
592.152	1833.45
592.6	1846.78
593.047	1845.08
593.494	1862.99
593.942	1852.66
594.389	1858.14
594.836	1845.04
595.284	1849.01
595.731	1867.86
596.178	1865.74
596.625	1872.88
597.072	1850.57
597.52	1864.82
597.967	1856.72
598.414	1865.93
598.861	1867.26
599.308	1858.82
599.755	1878.2
600.202	1869.89
600.649	1869.21
601.096	1864.68
601.543	1856.78
601.989	1868.75
602.436	1871.54
602.883	1871.74
603.33	1867.17
603.777	1869.8
604.223	1869.14
604.67	1880.57
605.117	1870.01
605.563	1864.08
606.01	1871.05
606.456	1867.45
606.903	1864.43
607.35	1872.82
607.796	1870.43
608.243	1877.37
608.689	1871.96
609.135	1884.45
609.582	1865.43
610.028	1877.74
610.474	1873
610.921	1879.38
611.367	1861.33
611.813	1878.84
612.26	1869.96
612.706	1882.16
613.152	1888.13
613.598	1899.03
614.044	1884.01
614.49	1889.63
614.936	1898.11
615.382	1882.43
615.828	1884.66
616.274	1893.7
616.72	1871.32
617.166	1872.17
617.612	1885.64
618.058	1895.01
618.504	1892.16
618.95	1872.47
619.395	1890.76
619.841	1905.64
620.287	1871.19
620.733	1873.72
621.178	1870.45
621.624	1869.78
622.069	1866.68
622.515	1863.62
622.961	1854.93
623.406	1870.87
623.852	1856.47
624.297	1844.16
624.743	1855.55
625.188	1844.05
625.633	1829.28
626.079	1818.84
626.524	1834.82
626.969	1838.71
627.415	1820.51
627.86	1812.63
628.305	1822.12
628.75	1829.2
629.196	1799.28
629.641	1803.82
630.086	1794.74
630.531	1803.2
630.976	1796.44
631.421	1792.95
631.866	1802.61
632.311	1779.95
632.756	1806.11
633.201	1776.01
633.646	1782.83
634.091	1778.28
634.535	1775.95
634.98	1815.71
635.425	1765.43
635.87	1774.88
636.314	1758.3
636.759	1767.33
637.204	1763.61
637.648	1759.97
638.093	1758.07
638.538	1752.41
638.982	1732.99
639.427	1732.03
639.871	1753.09
640.316	1745.96
640.76	1736.44
641.205	1735.57
641.649	1741.78
642.093	1735.07
642.538	1751.11
642.982	1772.65
643.426	1740.75
643.87	1767.11
644.315	1738.18
644.759	1748.19
645.203	1757.88
645.647	1758.43
646.091	1745.8
646.535	1762.57
646.979	1763.51
647.423	1756.25
647.867	1764.79
648.311	1760.8
648.755	1755.89
649.199	1759.41
649.643	1749.21
650.087	1741.28
650.531	1732.55
650.975	1747.95
651.418	1727.26
651.862	1747.78
652.306	1738.39
652.75	1709.15
653.193	1727.07
653.637	1700.2
654.08	1706.54
654.524	1686.03
654.968	1684.33
655.411	1674.59
655.855	1676.12
656.298	1666.69
656.741	1677.93
657.185	1677.5
657.628	1671.78
658.072	1673.87
658.515	1655.57
658.958	1655.18
659.401	1678.32
659.845	1670.96
660.288	1662.59
660.731	1651.74
661.174	1668.61
661.617	1667.75
662.06	1675.59
662.504	1674.76
662.947	1668.78
663.39	1667.78
663.833	1683.08
664.276	1688.62
664.718	1682.38
665.161	1693.19
665.604	1675.8
666.047	1687.74
666.49	1685.33
666.933	1685.57
667.375	1691.86
667.818	1688.96
668.261	1695.36
668.703	1687.28
669.146	1686.42
669.589	1696.69
670.031	1692.44
670.474	1701.37
670.916	1700.99
671.359	1694.39
671.801	1689.14
672.244	1691.2
672.686	1693.92
673.129	1697.05
673.571	1696.9
674.013	1709.41
674.456	1698.69
674.898	1699.68
675.34	1704.87
675.782	1698.61
676.224	1710.49
676.667	1684.53
677.109	1703.53
677.551	1709.53
677.993	1713.34
678.435	1696.49
678.877	1729.37
679.319	1722.83
679.761	1741.07
680.203	1749.49
680.645	1755.42
681.087	1758.79
681.529	1764.36
681.97	1786.78
682.412	1788.61
682.854	1794.83
683.296	1802.57
683.737	1784.45
684.179	1798.46
684.621	1814.09
685.062	1805.2
685.504	1799.79
685.945	1803.41
686.387	1808
686.828	1804.33
687.27	1795.11
687.711	1800.29
688.153	1786.84
688.594	1812.09
689.035	1770.82
689.477	1767.12
689.918	1767.68
690.359	1751.53
690.801	1748.63
691.242	1737.87
691.683	1730.11
692.124	1711.37
692.565	1708.28
693.006	1703.16
693.447	1690.3
693.889	1667.95
694.33	1658.59
694.771	1642.5
695.211	1656.21
695.652	1634.49
696.093	1624.2
696.534	1623.46
696.975	1606.28
697.416	1605.03
697.857	1605.29
698.297	1599.43
698.738	1594.72
699.179	1595.13
699.619	1584.04
700.06	1582.34
700.501	1596.38
700.941	1576.86
701.382	1560.19
701.822	1568.92
702.263	1574.82
702.703	1564.1
703.144	1568.24
703.584	1565.49
704.025	1571.32
704.465	1547.43
704.905	1567.76
705.346	1570.4
705.786	1571.36
706.226	1582.99
706.666	1584.66
707.106	1587.78
707.547	1590.53
707.987	1600.78
708.427	1618.72
708.867	1628.04
709.307	1648.26
709.747	1651.08
710.187	1648.69
710.627	1676.4
711.067	1674.76
711.507	1685.87
711.947	1683.38
712.386	1685.43
712.826	1689.26
713.266	1689.88
713.706	1693.24
714.145	1694.75
714.585	1692.22
715.025	1736.72
715.464	1677.32
715.904	1679.8
716.344	1652.37
716.783	1668.34
717.223	1642.74
717.662	1633.86
718.102	1631.68
718.541	1615.99
718.98	1591.22
719.42	1592.57
719.859	1585.36
720.298	1579.58
720.738	1575.94
721.177	1567.07
721.616	1557.51
722.055	1546.95
722.495	1552.03
722.934	1551.79
723.373	1536.92
723.812	1554.64
724.251	1546.87
724.69	1545.36
725.129	1547.91
725.568	1565.55
726.007	1582.53
726.446	1585.92
726.885	1613.43
727.323	1614.11
727.762	1622.68
728.201	1625.86
728.64	1644.37
729.079	1670.54
729.517	1686.37
729.956	1689.71
730.395	1710.36
730.833	1722.51
731.272	1733.74
731.71	1734.66
732.149	1739.19
732.587	1735.32
733.026	1718.91
733.464	1742.28
733.903	1722.74
734.341	1711.44
734.779	1699.61
735.218	1685.16
735.656	1676.76
736.094	1670.39
736.532	1658.49
736.971	1652.97
737.409	1630.61
737.847	1640.11
738.285	1634.88
738.723	1638.05
739.161	1632.7
739.599	1623.63
740.037	1662.03
740.475	1619.16
740.913	1630.34
741.351	1615.38
741.789	1624.49
742.227	1610.65
742.665	1619.58
743.102	1614.24
743.54	1607.66
743.978	1610.78
744.416	1591.99
744.853	1591.65
745.291	1579.65
745.729	1575.45
746.166	1574.4
746.604	1569.71
747.041	1567.89
747.479	1570.5
747.916	1562.08
748.354	1562.26
748.791	1560.39
749.228	1550.21
749.666	1543.06
750.103	1551.95
750.54	1541.57
750.978	1532.62
751.415	1532.51
751.852	1541.62
752.289	1535.13
752.726	1522.01
753.164	1512.61
753.601	1510.46
754.038	1510.29
754.475	1510.88
754.912	1502.89
755.349	1505.07
755.786	1489.58
756.223	1496.49
756.659	1507.49
757.096	1515.96
757.533	1519.97
757.97	1522.99
758.407	1530.99
758.843	1561.43
759.28	1584.63
759.717	1631
760.153	1699.14
760.59	1765.12
761.027	1836.82
761.463	1924.07
761.9	1966.47
762.336	2013.68
762.773	2045.17
763.209	2065.64
763.646	2067.78
764.082	2067.79
764.518	2079
764.955	2069.21
765.391	2040.43
765.827	2006.01
766.263	1966.72
766.7	1927.53
767.136	1810.74
767.572	1746.25
768.008	1677.11
768.444	1607.93
768.88	1537.67
769.316	1499.51
769.752	1450.06
770.188	1403.99
770.624	1388.55
771.06	1366.53
771.496	1355.69
771.932	1334.12
772.367	1303.55
772.803	1311.78
773.239	1282.48
773.675	1275.62
774.11	1275.16
774.546	1269.49
774.982	1243.44
775.417	1241.9
775.853	1225.89
776.288	1229.32
776.724	1219.98
777.159	1204.1
777.595	1198.35
778.03	1182.68
