Data from R_1_D_MAYP1165941__0__19-59-02-991.txt Node

Date: Wed May 31 19:59:02 JST 2023
User: takis
Spectrometer: MAYP116594
Trigger mode: 0
Integration Time (sec): 5.000000E-2
Scans to average: 100
Electric dark correction enabled: true
Nonlinearity correction enabled: false
Boxcar width: 0
XAxis mode: Wavelengths
Number of Pixels in Spectrum: 2068
>>>>>Begin Spectral Data<<<<<
199.712	842.62
200.181	-156.12
200.65	31.1
201.119	-11.72
201.587	115.86
202.056	117.57
202.525	127.85
202.993	141.41
203.462	138.01
203.93	126.64
204.399	135.64
204.867	123.96
205.336	127.8
205.804	130.55
206.273	123.45
206.741	113.25
207.21	115.6
207.678	123.94
208.146	120.67
208.615	120.27
209.083	120.22
209.551	130.14
210.02	125.69
210.488	127.14
210.956	134.31
211.424	130.06
211.893	137.14
212.361	130.22
212.829	118.78
213.297	135.27
213.765	124.99
214.233	130.78
214.701	126.96
215.169	117.69
215.637	130
216.105	121.41
216.573	145.95
217.041	120.9
217.509	125.5
217.977	146.15
218.445	128.33
218.913	138
219.381	128.29
219.848	131.51
220.316	137.85
220.784	135.62
221.252	123.2
221.719	129.51
222.187	124.9
222.655	127.18
223.122	130.81
223.59	136.22
224.058	139.08
224.525	119.57
224.993	124.76
225.46	133.1
225.928	125.35
226.395	138.45
226.863	131.07
227.33	136.1
227.798	137.1
228.265	136.43
228.732	126.32
229.2	116.02
229.667	133.68
230.134	127.04
230.602	119.28
231.069	137.41
231.536	130.83
232.003	120.51
232.47	137.74
232.938	122.07
233.405	126.21
233.872	127.35
234.339	123.21
234.806	127.41
235.273	129.28
235.74	135.26
236.207	129.77
236.674	137.37
237.141	133.66
237.608	122.61
238.075	123.21
238.542	111.69
239.009	129.97
239.476	129.52
239.942	136.55
240.409	126.14
240.876	124.02
241.343	126.25
241.809	130.52
242.276	148.24
242.743	118.4
243.21	124.67
243.676	123.85
244.143	138.69
244.609	135.57
245.076	127.59
245.542	120.16
246.009	121.47
246.476	131.34
246.942	128.05
247.408	118.77
247.875	129.14
248.341	131.45
248.808	128.64
249.274	130.52
249.74	134.6
250.207	141.75
250.673	129.7
251.139	140.59
251.606	131.15
252.072	142.81
252.538	127.6
253.004	128.29
253.47	135.08
253.936	134.77
254.403	137.16
254.869	131.24
255.335	123.28
255.801	126.42
256.267	121.78
256.733	132.05
257.199	136.03
257.665	122.24
258.131	118.53
258.596	136.23
259.062	138.09
259.528	127.47
259.994	124.39
260.46	126.63
260.926	117.1
261.391	118.65
261.857	133.57
262.323	131.12
262.789	128.27
263.254	139.27
263.72	125.56
264.185	126.44
264.651	136.71
265.117	129.07
265.582	134.78
266.048	133.28
266.513	125.49
266.979	127.47
267.444	121.5
267.91	124.31
268.375	126.43
268.84	107.9
269.306	133.97
269.771	123.36
270.236	125.59
270.702	138.61
271.167	120.05
271.632	135.58
272.098	128.77
272.563	125.91
273.028	122.13
273.493	120.09
273.958	129.64
274.423	127.35
274.888	137.19
275.353	118.68
275.819	120.2
276.284	122.22
276.749	131.09
277.214	138.89
277.678	140.52
278.143	118.39
278.608	126.58
279.073	125.82
279.538	133.97
280.003	122.32
280.468	134.23
280.932	125.44
281.397	129.89
281.862	132.41
282.327	124.21
282.791	136.28
283.256	123.45
283.721	125.89
284.185	130.51
284.65	129.99
285.114	126.16
285.579	123.74
286.044	130.06
286.508	117.08
286.973	132.72
287.437	138.24
287.901	121.94
288.366	145.18
288.83	129.39
289.295	133.57
289.759	115.88
290.223	131.26
290.687	129.09
291.152	139.68
291.616	128.1
292.08	130.75
292.544	130.54
293.009	132.72
293.473	148.14
293.937	135.36
294.401	127.2
294.865	140.99
295.329	131.14
295.793	118.12
296.257	121.59
296.721	123.82
297.185	131.84
297.649	118.83
298.113	124.38
298.577	124.26
299.041	126.41
299.505	138.4
299.968	117.76
300.432	140.71
300.896	131.1
301.36	141.83
301.823	136.53
302.287	117.71
302.751	125.24
303.214	119.26
303.678	134.16
304.142	129.26
304.605	118.94
305.069	138.43
305.532	143.32
305.996	137.28
306.459	133.33
306.923	137.59
307.386	120.5
307.85	119.26
308.313	122.06
308.776	123.51
309.24	127.96
309.703	129.51
310.166	138.02
310.63	126.44
311.093	124.43
311.556	139.94
312.019	120.96
312.482	122.78
312.946	126.32
313.409	131.4
313.872	121.12
314.335	131.22
314.798	125.34
315.261	139.84
315.724	116.08
316.187	133.99
316.65	119.8
317.113	117.33
317.576	131.54
318.039	128.66
318.502	138.03
318.964	121.3
319.427	127.97
319.89	122.4
320.353	136.8
320.816	121.08
321.278	133.77
321.741	124.05
322.204	123.38
322.666	127.23
323.129	124.99
323.592	130.46
324.054	124.71
324.517	128.87
324.979	116.18
325.442	121.91
325.904	128.23
326.367	138.26
326.829	120.72
327.292	136.36
327.754	114.62
328.216	121.05
328.679	127.54
329.141	125.61
329.603	140.81
330.066	129.37
330.528	123.44
330.99	121.69
331.452	132.14
331.914	123.11
332.377	129.24
332.839	122.35
333.301	128.19
333.763	139.09
334.225	125.34
334.687	118.86
335.149	134.05
335.611	114.03
336.073	121.45
336.535	129.07
336.997	131.21
337.459	121.71
337.92	135.73
338.382	133.67
338.844	138.36
339.306	130.41
339.768	123.61
340.229	141.61
340.691	129.13
341.153	136.52
341.614	122.46
342.076	114.33
342.538	118.52
342.999	123.51
343.461	128.19
343.922	139.04
344.384	131.14
344.845	127.62
345.307	121.52
345.768	159.71
346.23	127.04
346.691	117.15
347.153	135.86
347.614	123.5
348.075	118.99
348.536	124.9
348.998	123.86
349.459	130.95
349.92	160.73
350.381	125.44
350.843	140.28
351.304	127.26
351.765	140.23
352.226	110.72
352.687	121.42
353.148	121.15
353.609	135.93
354.07	130.39
354.531	132.2
354.992	122.5
355.453	128.73
355.914	138.9
356.375	140.01
356.836	122.09
357.297	124.76
357.757	123.89
358.218	118.81
358.679	122.2
359.14	129.01
359.6	124.1
360.061	139.02
360.522	128.44
360.982	128.12
361.443	125.01
361.904	122.59
362.364	132.9
362.825	138.47
363.285	144.2
363.746	143.24
364.206	138.3
364.667	128.07
365.127	129.36
365.588	134.65
366.048	136.22
366.508	138.71
366.969	127.86
367.429	138.12
367.889	141.04
368.349	132.48
368.81	134.64
369.27	140.94
369.73	146.31
370.19	133.9
370.65	143.47
371.11	139.15
371.57	145.96
372.031	153.54
372.491	163.79
372.951	149.77
373.411	168.96
373.871	155.29
374.33	169.25
374.79	149.89
375.25	169.03
375.71	197.7
376.17	174.87
376.63	185.35
377.09	204.24
377.549	191.1
378.009	188.26
378.469	211.04
378.928	215.91
379.388	202.02
379.848	230.15
380.307	241.13
380.767	251.53
381.227	242.49
381.686	264.76
382.146	293.83
382.605	290.27
383.065	302.16
383.524	295.86
383.983	335.01
384.443	326.33
384.902	331.52
385.361	357.26
385.821	347.88
386.28	389.38
386.739	398.64
387.199	405.99
387.658	430.88
388.117	424.87
388.576	452.79
389.035	471.04
389.494	472.83
389.954	509.95
390.413	529.33
390.872	533.38
391.331	579.12
391.79	587.28
392.249	604.61
392.708	621.61
393.166	658.17
393.625	687.3
394.084	725.39
394.543	723.4
395.002	767.05
395.461	783.71
395.919	812.08
396.378	830.53
396.837	872.03
397.296	885.99
397.754	935.52
398.213	947.71
398.672	1004.32
399.13	1013.72
399.589	1029.66
400.047	1060.05
400.506	1083.86
400.964	1110.37
401.423	1118.58
401.881	1162.21
402.34	1183.6
402.798	1220.11
403.256	1249.85
403.715	1276.92
404.173	1308.16
404.631	1322.63
405.09	1372.44
405.548	1376.61
406.006	1420.11
406.464	1455.37
406.923	1485.6
407.381	1505.34
407.839	1537.4
408.297	1587.59
408.755	1607.14
409.213	1626.66
409.671	1646.74
410.129	1702.58
410.587	1735.36
411.045	1750.45
411.503	1780.58
411.961	1798.05
412.419	1834.81
412.876	1860.31
413.334	1871.64
413.792	1898.94
414.25	1938.68
414.708	1957.12
415.165	2000.08
415.623	2031.21
416.081	2050.05
416.538	2091.6
416.996	2104.43
417.454	2140.9
417.911	2162.51
418.369	2190.43
418.826	2220.58
419.284	2226.2
419.741	2247.66
420.199	2277.96
420.656	2327.17
421.113	2336.72
421.571	2342.58
422.028	2366.71
422.485	2380.27
422.943	2414.12
423.4	2414.02
423.857	2431.98
424.314	2445.73
424.772	2469.91
425.229	2494.06
425.686	2513.12
426.143	2528.05
426.6	2561.98
427.057	2572.41
427.514	2580.49
427.971	2615.99
428.428	2645.54
428.885	2657.03
429.342	2677.44
429.799	2715.06
430.256	2716.95
430.713	2750.26
431.17	2752.67
431.627	2772.83
432.083	2807.74
432.54	2817.91
432.997	2847.87
433.454	2875.88
433.91	2894.28
434.367	2934.11
434.824	2963.33
435.28	2970.39
435.737	3004.98
436.193	3028.09
436.65	3055.28
437.106	3084.67
437.563	3110.39
438.019	3143.32
438.476	3163.09
438.932	3179.29
439.388	3208.93
439.845	3234.07
440.301	3247.56
440.757	3261.29
441.214	3290.43
441.67	3299.99
442.126	3326.15
442.582	3340.26
443.039	3368.34
443.495	3383.79
443.951	3404.78
444.407	3421.8
444.863	3483.35
445.319	3516.64
445.775	3542.2
446.231	3608.64
446.687	3636.03
447.143	3692.12
447.599	3758.76
448.055	3810.87
448.511	3845.86
448.967	3878.11
449.422	3937.46
449.878	3965.71
450.334	4000.91
450.79	4022.3
451.245	4050.71
451.701	4088.86
452.157	4109.68
452.612	4111.02
453.068	4120.64
453.524	4130.01
453.979	4151.13
454.435	4143.84
454.89	4182.96
455.346	4210.22
455.801	4223.96
456.257	4263.35
456.712	4297.46
457.168	4358.09
457.623	4404.85
458.078	4451.95
458.534	4510.65
458.989	4559.73
459.444	4620.23
459.899	4680.36
460.354	4790.74
460.81	4766.61
461.265	4838.35
461.72	4889.04
462.175	4966.58
462.63	5007.24
463.085	5086.04
463.54	5178.63
463.995	5258.55
464.45	5344.26
464.905	5428.98
465.36	5497.1
465.815	5545.91
466.27	5607.85
466.725	5660.12
467.18	5713.91
467.634	5747.26
468.089	5763.4
468.544	5816.27
468.999	5843.55
469.453	5866.97
469.908	5845.32
470.363	5819.03
470.817	5817.68
471.272	5774.14
471.726	5696.66
472.181	5644.79
472.635	5565.63
473.09	5519.63
473.544	5463.43
473.999	5408.67
474.453	5362.82
474.908	5337.58
475.362	5301.81
475.816	5267.88
476.271	5211.73
476.725	5180.95
477.179	5154.64
477.633	5168.84
478.087	5180.61
478.542	5220.42
478.996	5279.69
479.45	5300.82
479.904	5342.74
480.358	5368.46
480.812	5417.45
481.266	5439.4
481.72	5445.12
482.174	5469
482.628	5478.86
483.082	5486.26
483.536	5477.83
483.99	5455.64
484.444	5436.58
484.897	5404.13
485.351	5377.46
485.805	5359.16
486.259	5344.61
486.712	5364.85
487.166	5353.84
487.62	5364.22
488.073	5384.2
488.527	5411.49
488.981	5437.57
489.434	5475.13
489.888	5514.76
490.341	5547.57
490.795	5587.17
491.248	5605.92
491.701	5639.35
492.155	5631.73
492.608	5646.89
493.062	5625.51
493.515	5616.27
493.968	5608.15
494.421	5587.51
494.875	5552.65
495.328	5524.34
495.781	5499.22
496.234	5441.29
496.687	5410.42
497.14	5393.91
497.594	5380.13
498.047	5380.62
498.5	5353.9
498.953	5376.02
499.406	5367.18
499.859	5368.72
500.311	5398.61
500.764	5399.91
501.217	5408.06
501.67	5419.63
502.123	5435.91
502.576	5450.29
503.028	5470.48
503.481	5481.08
503.934	5496.06
504.387	5486.02
504.839	5508.52
505.292	5523.66
505.745	5530.11
506.197	5519.08
506.65	5554.11
507.102	5557.43
507.555	5566.28
508.007	5606.36
508.46	5588.16
508.912	5606.43
509.364	5633.07
509.817	5646.88
510.269	5658.54
510.721	5660.23
511.174	5685.28
511.626	5694.99
512.078	5730.61
512.531	5718.94
512.983	5741.56
513.435	5771.24
513.887	5781.14
514.339	5785.67
514.791	5804.12
515.243	5805.16
515.695	5792.19
516.147	5837.04
516.599	5832.79
517.051	5848.76
517.503	5852.38
517.955	5859.52
518.407	5886.02
518.859	5907.12
519.311	5895
519.762	5918.07
520.214	5919.83
520.666	5950.46
521.118	5960.54
521.569	5956.18
522.021	5974.98
522.473	5990.34
522.924	5985.34
523.376	6005.35
523.827	6022.47
524.279	6028.25
524.73	6025.41
525.182	6016.01
525.633	6048.43
526.085	6059.19
526.536	6065.35
526.987	6087.78
527.439	6081.81
527.89	6088.1
528.341	6081.23
528.793	6112.28
529.244	6111.48
529.695	6109.01
530.146	6132.55
530.597	6137.34
531.049	6144.14
531.5	6159.24
531.951	6156.99
532.402	6164.87
532.853	6181.66
533.304	6163.97
533.755	6199.3
534.206	6183.98
534.657	6222.6
535.108	6235.46
535.558	6203.23
536.009	6223.03
536.46	6225.31
536.911	6241.72
537.362	6255.96
537.812	6280.01
538.263	6274.77
538.714	6270.61
539.164	6285.92
539.615	6280.98
540.066	6303.59
540.516	6333.59
540.967	6344.76
541.417	6336.12
541.868	6330.62
542.318	6363.23
542.769	6359.1
543.219	6376.99
543.669	6394.37
544.12	6387.1
544.57	6414.95
545.02	6378.67
545.471	6411.79
545.921	6412.8
546.371	6415.72
546.821	6430.64
547.272	6432.43
547.722	6443.42
548.172	6460.54
548.622	6459.12
549.072	6460.23
549.522	6470.75
549.972	6477.04
550.422	6484.39
550.872	6494.18
551.322	6497.11
551.772	6512.3
552.222	6503.04
552.671	6520.38
553.121	6509.02
553.571	6551.9
554.021	6533.35
554.471	6552.23
554.92	6559.27
555.37	6564.24
555.82	6578.48
556.269	6564.22
556.719	6559
557.168	6559.22
557.618	6572.62
558.068	6566.32
558.517	6621.7
558.967	6600.61
559.416	6617.01
559.865	6617.01
560.315	6597.53
560.764	6573.33
561.213	6594
561.663	6608.52
562.112	6608.74
562.561	6613.8
563.011	6616.38
563.46	6608.51
563.909	6618.32
564.358	6634.26
564.807	6630.17
565.256	6638.4
565.705	6647.76
566.154	6670.89
566.603	6651.81
567.052	6655.23
567.501	6649.15
567.95	6655.92
568.399	6676.73
568.848	6672.48
569.297	6679.63
569.746	6668.31
570.195	6671.83
570.643	6710.18
571.092	6709.12
571.541	6717.58
571.989	6712.96
572.438	6713.92
572.887	6717.28
573.335	6740.17
573.784	6723.12
574.232	6730.12
574.681	6723.02
575.129	6737.1
575.578	6754.01
576.026	6749.04
576.475	6740.92
576.923	6751.26
577.372	6741.03
577.82	6748.6
578.268	6759.59
578.716	6761.33
579.165	6762.48
579.613	6774.16
580.061	6788.1
580.509	6775.41
580.957	6777.27
581.406	6783.91
581.854	6788.88
582.302	6795.37
582.75	6796.22
583.198	6795.17
583.646	6791.63
584.094	6784.67
584.542	6814.56
584.99	6787.56
585.437	6787.6
585.885	6791.86
586.333	6802.29
586.781	6792.13
587.229	6781.24
587.676	6782.32
588.124	6769.18
588.572	6769.27
589.019	6766.9
589.467	6749.23
589.915	6741.57
590.362	6723.14
590.81	6731.26
591.257	6711.25
591.705	6726.14
592.152	6698.97
592.6	6693.63
593.047	6683.12
593.494	6683.78
593.942	6656.72
594.389	6654.35
594.836	6637.83
595.284	6623.95
595.731	6645.69
596.178	6623.91
596.625	6624.74
597.072	6587.66
597.52	6602.62
597.967	6582.79
598.414	6593.87
598.861	6584.54
599.308	6578.06
599.755	6588.96
600.202	6563.89
600.649	6567.88
601.096	6571.98
601.543	6553.13
601.989	6575.27
602.436	6584.13
602.883	6576.78
603.33	6562.63
603.777	6560.12
604.223	6567.04
604.67	6573.11
605.117	6559.27
605.563	6566.72
606.01	6562.19
606.456	6570.45
606.903	6565.04
607.35	6573.6
607.796	6567.01
608.243	6580.37
608.689	6576.53
609.135	6592.84
609.582	6583.87
610.028	6592.13
610.474	6591.44
610.921	6604.92
611.367	6594.85
611.813	6606.07
612.26	6602.63
612.706	6607.97
613.152	6633.88
613.598	6642.78
614.044	6627.15
614.49	6637.02
614.936	6648.2
615.382	6632.7
615.828	6643.63
616.274	6656.81
616.72	6638.5
617.166	6636.07
617.612	6645.48
618.058	6666.47
618.504	6648.64
618.95	6635.35
619.395	6650.88
619.841	6664.76
620.287	6622.26
620.733	6632.02
621.178	6628.83
621.624	6608.07
622.069	6603.23
622.515	6599.04
622.961	6574.28
623.406	6584.53
623.852	6560.27
624.297	6544.14
624.743	6545.37
625.188	6518.16
625.633	6496.56
626.079	6485.97
626.524	6497.2
626.969	6477.28
627.415	6453.55
627.86	6452.67
628.305	6458.78
628.75	6448.45
629.196	6423.5
629.641	6402.92
630.086	6404.5
630.531	6400.33
630.976	6399.35
631.421	6379.91
631.866	6387.2
632.311	6359.99
632.756	6377.81
633.201	6346.77
633.646	6338.25
634.091	6340.47
634.535	6322.06
634.98	6355.73
635.425	6303.97
635.87	6299.43
636.314	6278.85
636.759	6277.24
637.204	6265.45
637.648	6259.36
638.093	6255.64
638.538	6239.79
638.982	6234.5
639.427	6226.89
639.871	6238.08
640.316	6226.57
640.76	6220.89
641.205	6222.05
641.649	6219.32
642.093	6224.94
642.538	6246.94
642.982	6264.6
643.426	6245.13
643.87	6285
644.315	6261.5
644.759	6262.93
645.203	6290.93
645.647	6306.49
646.091	6300.25
646.535	6314.99
646.979	6320.28
647.423	6317.04
647.867	6326.36
648.311	6317.19
648.755	6323.89
649.199	6313.58
649.643	6301.92
650.087	6273.55
650.531	6256.95
650.975	6257.07
651.418	6239.39
651.862	6231.23
652.306	6202.85
652.75	6157.36
653.193	6163.12
653.637	6124.53
654.08	6122.78
654.524	6086.45
654.968	6072.31
655.411	6053.24
655.855	6043.29
656.298	6032.48
656.741	6035.54
657.185	6033.29
657.628	6028.23
658.072	6034.55
658.515	6008.05
658.958	6010.88
659.401	6039.48
659.845	6021.89
660.288	6025.73
660.731	6017.75
661.174	6030.77
661.617	6041.66
662.06	6047.2
662.504	6056.76
662.947	6046.66
663.39	6061.68
663.833	6082.59
664.276	6097.76
664.718	6102.74
665.161	6107.03
665.604	6106.99
666.047	6124.69
666.49	6136.38
666.933	6130.41
667.375	6152.58
667.818	6151.62
668.261	6156.82
668.703	6164.17
669.146	6164.77
669.589	6182.39
670.031	6180.12
670.474	6197.43
670.916	6195.41
671.359	6190.07
671.801	6191.84
672.244	6188.72
672.686	6200.5
673.129	6196.64
673.571	6210.66
674.013	6230.13
674.456	6212.68
674.898	6221.13
675.34	6221.76
675.782	6230.82
676.224	6232.88
676.667	6215.62
677.109	6238.88
677.551	6250.52
677.993	6271.26
678.435	6267.34
678.877	6331.6
679.319	6349.86
679.761	6414.98
680.203	6446.79
680.645	6469.63
681.087	6490.9
681.529	6525.05
681.97	6568.73
682.412	6584.7
682.854	6610.83
683.296	6627.09
683.737	6630.75
684.179	6659.47
684.621	6684.71
685.062	6665.73
685.504	6660.97
685.945	6674.94
686.387	6675.73
686.828	6671.64
687.27	6643.8
687.711	6631.19
688.153	6612.45
688.594	6619.94
689.035	6570.21
689.477	6558.06
689.918	6525.82
690.359	6497.94
690.801	6469.79
691.242	6430.42
691.683	6399.78
692.124	6351.74
692.565	6308.22
693.006	6291.63
693.447	6236.75
693.889	6197.16
694.33	6154.52
694.771	6122.69
695.211	6110.59
695.652	6059.08
696.093	6036.42
696.534	6006.27
696.975	5974.97
697.416	5963.81
697.857	5942.38
698.297	5935.18
698.738	5921.49
699.179	5901.36
699.619	5898.9
700.06	5871.93
700.501	5888.95
700.941	5850.46
701.382	5828.22
701.822	5824.5
702.263	5831.9
702.703	5815.58
703.144	5817.3
703.584	5830.18
704.025	5847.6
704.465	5824.98
704.905	5845.81
705.346	5857.53
705.786	5878.01
706.226	5907.08
706.666	5919.02
707.106	5943.26
707.547	5979.78
707.987	6011.5
708.427	6063.95
708.867	6098.43
709.307	6145.35
709.747	6186.78
710.187	6218.41
710.627	6274.9
711.067	6288.37
711.507	6334.09
711.947	6337.31
712.386	6354.64
712.826	6371.51
713.266	6376.06
713.706	6391.08
714.145	6385.06
714.585	6374.12
715.025	6372.94
715.464	6325.04
715.904	6303.22
716.344	6257.54
716.783	6238.15
717.223	6184.27
717.662	6150.26
718.102	6121.4
718.541	6079.6
718.98	6027.36
719.42	6004.36
719.859	5971.33
720.298	5940.87
720.738	5915.49
721.177	5894.06
721.616	5866.02
722.055	5838.83
722.495	5835.87
722.934	5840.16
723.373	5818.67
723.812	5841.32
724.251	5858.83
724.69	5875.69
725.129	5888.65
725.568	5931.18
726.007	5979.43
726.446	6000.8
726.885	6059.37
727.323	6091.05
727.762	6145.35
728.201	6201.7
728.64	6264.19
729.079	6340.85
729.517	6414.18
729.956	6459.62
730.395	6525.72
730.833	6574.19
731.272	6610.69
731.71	6627.48
732.149	6641.25
732.587	6638.69
733.026	6617.24
733.464	6627.16
733.903	6595.15
734.341	6550.56
734.779	6516.75
735.218	6485.71
735.656	6439.46
736.094	6403.98
736.532	6359.69
736.971	6319.69
737.409	6289.48
737.847	6265.03
738.285	6249.48
738.723	6255.35
739.161	6238.63
739.599	6225.73
740.037	6274.65
740.475	6225.3
740.913	6243.58
741.351	6220.19
741.789	6234.28
742.227	6209.28
742.665	6207.64
743.102	6188.48
743.54	6183.97
743.978	6171.73
744.416	6145.75
744.853	6131.19
745.291	6096.09
745.729	6077.64
746.166	6066.62
746.604	6039.25
747.041	6032.78
747.479	6020.91
747.916	5999.93
748.354	5998.15
748.791	5985.42
749.228	5977.84
749.666	5958.65
750.103	5963.32
750.54	5946.08
750.978	5915.46
751.415	5908.95
751.852	5892.73
752.289	5888.51
752.726	5857.9
753.164	5833.67
753.601	5816.72
754.038	5803.91
754.475	5795.87
754.912	5774.3
755.349	5781.68
755.786	5761.95
756.223	5784.69
756.659	5810.9
757.096	5835.86
757.533	5855.62
757.97	5901.76
758.407	5955.38
758.843	6048.77
759.28	6165.61
759.717	6339.09
760.153	6610.17
760.59	6902.46
761.027	7222.25
761.463	7527.22
761.9	7748.89
762.336	7929.78
762.773	8066.5
763.209	8151.2
763.646	8201.07
764.082	8208.17
764.518	8200.74
764.955	8157.83
765.391	8057.13
765.827	7927.79
766.263	7743.12
766.7	7495.25
767.136	7143.36
767.572	6837.68
768.008	6548.73
768.444	6269.56
768.88	6016.12
769.316	5819.65
769.752	5637.14
770.188	5493.31
770.624	5391.72
771.06	5306.17
771.496	5238.13
771.932	5163.53
772.367	5087.28
772.803	5052.29
773.239	4975.71
773.675	4934.15
774.11	4901.6
774.546	4872.72
