Data from T_2_S_MAYP1165941__1__20-04-32-961.txt Node

Date: Wed May 31 20:04:32 JST 2023
User: takis
Spectrometer: MAYP116594
Trigger mode: 0
Integration Time (sec): 5.000000E-2
Scans to average: 100
Electric dark correction enabled: true
Nonlinearity correction enabled: false
Boxcar width: 0
XAxis mode: Wavelengths
Number of Pixels in Spectrum: 2068
>>>>>Begin Spectral Data<<<<<
199.712	843.28
200.181	-156.16
200.65	30.54
201.119	-11.08
201.587	109.46
202.056	107.79
202.525	116.46
202.993	129.53
203.462	123.85
203.93	112.02
204.399	121.89
204.867	111.97
205.336	114.35
205.804	116.72
206.273	112.42
206.741	100.93
207.21	104.68
207.678	110.87
208.146	106.76
208.615	109.38
209.083	107.08
209.551	115.82
210.02	112.42
210.488	114.19
210.956	121.46
211.424	118.63
211.893	125.59
212.361	117.64
212.829	107.03
213.297	123.68
213.765	114.57
214.233	117.92
214.701	116.79
215.169	108.07
215.637	118.26
216.105	109
216.573	134.57
217.041	110.75
217.509	112.44
217.977	136.05
218.445	118.56
218.913	125.49
219.381	119.44
219.848	120.35
220.316	128.04
220.784	123.56
221.252	112.71
221.719	117.49
222.187	114.03
222.655	117.51
223.122	121.36
223.59	125.83
224.058	128.27
224.525	107.77
224.993	113.34
225.46	124.22
225.928	115.94
226.395	129.26
226.863	122.47
227.33	125.79
227.798	128.54
228.265	128.08
228.732	116.39
229.2	104.51
229.667	122.58
230.134	117.95
230.602	109.25
231.069	128.57
231.536	119.98
232.003	111.82
232.47	127.55
232.938	112.63
233.405	117.61
233.872	117.42
234.339	114.56
234.806	118.16
235.273	118.63
235.74	125.35
236.207	119.11
236.674	125.18
237.141	124.79
237.608	113.73
238.075	114.43
238.542	104.17
239.009	120.68
239.476	119.34
239.942	126.55
240.409	117.26
240.876	115.62
241.343	118.94
241.809	121.13
242.276	138.09
242.743	108.83
243.21	116.11
243.676	114.7
244.143	131.28
244.609	126.6
245.076	118.32
245.542	109.49
246.009	112.61
246.476	121.42
246.942	118.94
247.408	107.65
247.875	119.78
248.341	123.44
248.808	119.63
249.274	122.18
249.74	125.18
250.207	132.84
250.673	123.73
251.139	132.42
251.606	120.69
252.072	135.15
252.538	120.03
253.004	118.85
253.47	126.59
253.936	125.58
254.403	129
254.869	123.49
255.335	113.9
255.801	119.95
256.267	112.69
256.733	124.09
257.199	126.85
257.665	113.15
258.131	110.66
258.596	127.02
259.062	129.83
259.528	116.75
259.994	116.33
260.46	119.56
260.926	108.56
261.391	109.63
261.857	125.69
262.323	122.39
262.789	120.35
263.254	130.46
263.72	116.11
264.185	118.01
264.651	128.36
265.117	121.7
265.582	126.64
266.048	125.69
266.513	117.24
266.979	118.65
267.444	114.32
267.91	115.69
268.375	117.17
268.84	98.73
269.306	125.48
269.771	115.71
270.236	115.62
270.702	130.37
271.167	113.85
271.632	127.96
272.098	120.93
272.563	117.25
273.028	113.23
273.493	111.92
273.958	121.55
274.423	118.48
274.888	130.09
275.353	110.88
275.819	112.75
276.284	111.58
276.749	121.69
277.214	130.5
277.678	132.72
278.143	111.6
278.608	118.96
279.073	117.77
279.538	125.92
280.003	115.9
280.468	125.71
280.932	118.84
281.397	122.24
281.862	124.33
282.327	115.65
282.791	127.71
283.256	115.32
283.721	119.14
284.185	122.88
284.65	122.54
285.114	117.97
285.579	115.69
286.044	120.75
286.508	109.86
286.973	124.63
287.437	131.76
287.901	113.81
288.366	137.84
288.83	121.78
289.295	126.01
289.759	108.57
290.223	123.82
290.687	121.73
291.152	133.25
291.616	121.54
292.08	121.91
292.544	122.75
293.009	124.66
293.473	141.58
293.937	128.09
294.401	118.56
294.865	133.39
295.329	123.4
295.793	110.59
296.257	114.5
296.721	114.99
297.185	123.85
297.649	111.05
298.113	116.52
298.577	115.35
299.041	117.86
299.505	131.04
299.968	109.5
300.432	134.33
300.896	123.21
301.36	133.12
301.823	129.05
302.287	109.73
302.751	116.32
303.214	111.17
303.678	126.14
304.142	120.18
304.605	109.64
305.069	130.42
305.532	136.06
305.996	128.01
306.459	125.47
306.923	130.32
307.386	111.41
307.85	111.91
308.313	112.31
308.776	114.94
309.24	119.16
309.703	121.79
310.166	129.25
310.63	119.02
311.093	117.19
311.556	130.15
312.019	114.37
312.482	114.39
312.946	117.2
313.409	123.12
313.872	111.76
314.335	123.96
314.798	119.16
315.261	133.71
315.724	109.42
316.187	125.56
316.65	112.56
317.113	108.66
317.576	123.38
318.039	120.89
318.502	129.5
318.964	112.48
319.427	119.95
319.89	113.56
320.353	129.76
320.816	113.37
321.278	125.93
321.741	116.68
322.204	115.29
322.666	118.58
323.129	116.11
323.592	121.25
324.054	117.55
324.517	117.97
324.979	108.96
325.442	114.12
325.904	118.69
326.367	131.26
326.829	111.66
327.292	127.21
327.754	104.41
328.216	112
328.679	119.65
329.141	117.34
329.603	132.48
330.066	120.87
330.528	115.5
330.99	112.32
331.452	124.45
331.914	114.61
332.377	121
332.839	113.28
333.301	119.88
333.763	129.85
334.225	117.22
334.687	111.36
335.149	126.59
335.611	105.09
336.073	112.76
336.535	120.32
336.997	123.64
337.459	112.59
337.92	128.57
338.382	126.05
338.844	130.35
339.306	120.89
339.768	115.22
340.229	133.61
340.691	119.93
341.153	126.44
341.614	115.76
342.076	106.27
342.538	109.54
342.999	115.42
343.461	117.69
343.922	131.63
344.384	122.68
344.845	117.9
345.307	111.38
345.768	154.72
346.23	119.76
346.691	107.38
347.153	126.99
347.614	114.96
348.075	108.79
348.536	117.01
348.998	116.24
349.459	121.26
349.92	153.22
350.381	116.13
350.843	130.49
351.304	117.02
351.765	131.78
352.226	103.51
352.687	111.91
353.148	111.44
353.609	126.39
354.07	120.75
354.531	122.28
354.992	114.89
355.453	118.37
355.914	129.01
356.375	130.2
356.836	111.74
357.297	114.02
357.757	113.59
358.218	107.54
358.679	113.04
359.14	118.24
359.6	114.29
360.061	130.14
360.522	117.55
360.982	117.62
361.443	113.71
361.904	112.35
362.364	122.55
362.825	127.74
363.285	135.83
363.746	132.02
364.206	127.28
364.667	118.17
365.127	117.68
365.588	123.56
366.048	122.63
366.508	124.17
366.969	112.72
367.429	124.26
367.889	127.17
368.349	118.32
368.81	118.53
369.27	123.9
369.73	128.68
370.19	114.01
370.65	123.98
371.11	117.75
371.57	122.39
372.031	128.58
372.491	138.92
372.951	120.29
373.411	136.34
373.871	120.82
374.33	132.61
374.79	109.48
375.25	123.04
375.71	150.48
376.17	122.96
376.63	128.04
377.09	142.35
377.549	121.91
378.009	116.15
378.469	132.22
378.928	132.58
379.388	113.82
379.848	134.52
380.307	138.47
380.767	140.54
381.227	124.41
381.686	139.66
382.146	161.58
382.605	146.72
383.065	150.04
383.524	136.61
383.983	164.54
384.443	148.78
384.902	142.99
385.361	157.06
385.821	139.17
386.28	168.01
386.739	164.29
387.199	156.85
387.658	170.28
388.117	148.31
388.576	161.17
389.035	164.37
389.494	150.8
389.954	168.93
390.413	170.19
390.872	159.15
391.331	184.98
391.79	171.01
392.249	171.21
392.708	166.49
393.166	180.51
393.625	185.82
394.084	198.36
394.543	173.66
395.002	195.83
395.461	186.22
395.919	184.65
396.378	181.04
396.837	195.42
397.296	188.02
397.754	213.42
398.213	200.14
398.672	228.57
399.13	212.15
399.589	199.54
400.047	205.06
400.506	203.55
400.964	207.89
401.423	186.86
401.881	200.69
402.34	202.59
402.798	207.08
403.256	210.22
403.715	211.9
404.173	210.66
404.631	199.12
405.09	217.89
405.548	199.79
406.006	209.37
406.464	213.31
406.923	220.25
407.381	212.55
407.839	212.8
408.297	236.11
408.755	225.85
409.213	216.82
409.671	208.41
410.129	234.85
410.587	244.01
411.045	229.61
411.503	237.1
411.961	223.88
412.419	232.73
412.876	232.96
413.334	217.75
413.792	222.03
414.25	237.08
414.708	237.4
415.165	249.21
415.623	260.47
416.081	241.3
416.538	266.38
416.996	251.42
417.454	265.35
417.911	267.27
418.369	268.01
418.826	279.32
419.284	255.09
419.741	264.42
420.199	270.34
420.656	299.16
421.113	294.1
421.571	283.53
422.028	297.13
422.485	291.51
422.943	317.12
423.4	305.69
423.857	308.34
424.314	310.6
424.772	323.74
425.229	333.27
425.686	336.49
426.143	333.86
426.6	359.7
427.057	359.41
427.514	353.31
427.971	374.25
428.428	379.11
428.885	386.61
429.342	394.68
429.799	415.96
430.256	405.61
430.713	429.98
431.17	418.47
431.627	428.65
432.083	444.6
432.54	444.46
432.997	453.23
433.454	464.6
433.91	473.92
434.367	492.8
434.824	508.44
435.28	506.43
435.737	519.86
436.193	527.82
436.65	539.15
437.106	553.82
437.563	566.44
438.019	589.68
438.476	597.29
438.932	607.87
439.388	613.7
439.845	629.61
440.301	634.31
440.757	643.58
441.214	662.95
441.67	673.45
442.126	684.9
442.582	687.59
443.039	712.34
443.495	709.29
443.951	723.83
444.407	726.94
444.863	763.28
445.319	770.65
445.775	769.01
446.231	807.42
446.687	814.37
447.143	825.72
447.599	848.91
448.055	869.83
448.511	879.32
448.967	884.72
449.422	914.15
449.878	925.01
450.334	926.46
450.79	937.08
451.245	955.22
451.701	970.57
452.157	981.94
452.612	980.87
453.068	990.91
453.524	1000.29
453.979	1021.04
454.435	1001.88
454.89	1025.85
455.346	1042.56
455.801	1040.74
456.257	1063.49
456.712	1064.25
457.168	1090.36
457.623	1114.84
458.078	1116.25
458.534	1128.9
458.989	1141.99
459.444	1171.7
459.899	1192.01
460.354	1269.78
460.81	1206.74
461.265	1239.36
461.72	1257.7
462.175	1285.13
462.63	1278.84
463.085	1309.16
463.54	1335.22
463.995	1359.57
464.45	1386.73
464.905	1408.79
465.36	1434.02
465.815	1439.86
466.27	1468.95
466.725	1484.33
467.18	1499.58
467.634	1505.69
468.089	1502.56
468.544	1533.87
468.999	1539.03
469.453	1555.7
469.908	1546.51
470.363	1539.54
470.817	1548.31
471.272	1557.58
471.726	1527.52
472.181	1517.62
472.635	1496.79
473.09	1497.91
473.544	1473.97
473.999	1454.95
474.453	1444.23
474.908	1445.27
475.362	1443.68
475.816	1440.73
476.271	1412.45
476.725	1403.02
477.179	1408.32
477.633	1419.87
478.087	1415.79
478.542	1436.51
478.996	1464.66
479.45	1458.41
479.904	1473.57
480.358	1482.56
480.812	1494.72
481.266	1499.11
481.72	1498.04
482.174	1504.93
482.628	1513.61
483.082	1522.74
483.536	1518.82
483.99	1519.97
484.444	1513.07
484.897	1505.26
485.351	1504.52
485.805	1493.39
486.259	1492.08
486.712	1514.54
487.166	1502.12
487.62	1508.18
488.073	1506.27
488.527	1512.43
488.981	1525.81
489.434	1526.8
489.888	1543.49
490.341	1558.47
490.795	1571.46
491.248	1578.14
491.701	1595.25
492.155	1585.91
492.608	1594.8
493.062	1582.27
493.515	1576.98
493.968	1571.88
494.421	1572.9
494.875	1562.34
495.328	1563.52
495.781	1573.28
496.234	1532.85
496.687	1533.08
497.14	1529.38
497.594	1520.02
498.047	1525.08
498.5	1520.23
498.953	1521.57
499.406	1528.95
499.859	1513.38
500.311	1535.13
500.764	1529.95
501.217	1534.4
501.67	1527.3
502.123	1544.74
502.576	1548.2
503.028	1568.11
503.481	1561.44
503.934	1561.57
504.387	1549.76
504.839	1557.92
505.292	1574.33
505.745	1572.52
506.197	1550.59
506.65	1579.54
507.102	1576.32
507.555	1578.61
508.007	1604.01
508.46	1572.21
508.912	1579.01
509.364	1591.62
509.817	1603.27
510.269	1598.58
510.721	1584.64
511.174	1591.77
511.626	1599.65
512.078	1608.54
512.531	1591.99
512.983	1601.81
513.435	1620.49
513.887	1624.16
514.339	1617.13
514.791	1616.95
515.243	1605
515.695	1595.02
516.147	1616.51
516.599	1606.31
517.051	1592.3
517.503	1604.14
517.955	1595.36
518.407	1600.21
518.859	1609.9
519.311	1578.74
519.762	1597.77
520.214	1583.96
520.666	1587.01
521.118	1591.24
521.569	1568.33
522.021	1581.71
522.473	1579.98
522.924	1555.63
523.376	1554.57
523.827	1564.32
524.279	1549.98
524.73	1535.64
525.182	1519.86
525.633	1525.54
526.085	1520.89
526.536	1521.07
526.987	1518.35
527.439	1501.15
527.89	1494.46
528.341	1478.28
528.793	1488.87
529.244	1473.03
529.695	1460.66
530.146	1461.73
530.597	1461.67
531.049	1447.99
531.5	1452.47
531.951	1454.92
532.402	1432.44
532.853	1430.95
533.304	1409.55
533.755	1426.22
534.206	1407.29
534.657	1421.69
535.108	1423.66
535.558	1392.7
536.009	1402.11
536.46	1389.6
536.911	1394.14
537.362	1398.73
537.812	1408.88
538.263	1399.15
538.714	1387.97
539.164	1389.66
539.615	1380.19
540.066	1396.78
540.516	1411.8
540.967	1416.1
541.417	1396.1
541.868	1390.95
542.318	1410.18
542.769	1410.3
543.219	1426.42
543.669	1425.55
544.12	1419.8
544.57	1453.63
545.02	1416.45
545.471	1452.82
545.921	1443.58
546.371	1444.44
546.821	1457.83
547.272	1471.62
547.722	1475.29
548.172	1492.92
548.622	1491.58
549.072	1494.26
549.522	1513.53
549.972	1512.27
550.422	1519.28
550.872	1529.3
551.322	1542.18
551.772	1545.42
552.222	1552.62
552.671	1565.51
553.121	1551.84
553.571	1597.17
554.021	1567.55
554.471	1591.58
554.92	1597.78
555.37	1602.8
555.82	1612.61
556.269	1605.98
556.719	1605.39
557.168	1600.64
557.618	1600.37
558.068	1608.5
558.517	1646.07
558.967	1631.25
559.416	1631.65
559.865	1631.84
560.315	1618.3
560.764	1592.4
561.213	1601.18
561.663	1608.7
562.112	1603.59
562.561	1609.91
563.011	1598.47
563.46	1596.83
563.909	1586.07
564.358	1594.12
564.807	1580.66
565.256	1576.92
565.705	1578.41
566.154	1591.6
566.603	1537.59
567.052	1551.14
567.501	1537.02
567.95	1537
568.399	1534.75
568.848	1522.89
569.297	1518.86
569.746	1490.61
570.195	1490.08
570.643	1497.75
571.092	1487.49
571.541	1476.44
571.989	1478.44
572.438	1453.08
572.887	1455.24
573.335	1460.55
573.784	1452.27
574.232	1444.97
574.681	1436.81
575.129	1439.74
575.578	1453.35
576.026	1445.68
576.475	1442.57
576.923	1454.13
577.372	1450.27
577.82	1463.04
578.268	1475.56
578.716	1472.13
579.165	1492.31
579.613	1511.21
580.061	1531.42
580.509	1538.67
580.957	1557.77
581.406	1572.2
581.854	1585.7
582.302	1606.57
582.75	1630.66
583.198	1636.99
583.646	1659.78
584.094	1666.62
584.542	1713.84
584.99	1701.99
585.437	1724.02
585.885	1749.16
586.333	1778.65
586.781	1786.12
587.229	1800.65
587.676	1827.71
588.124	1817.47
588.572	1841.86
589.019	1862.68
589.467	1860.39
589.915	1869.24
590.362	1879.84
590.81	1893.54
591.257	1894.75
591.705	1928.04
592.152	1907.64
592.6	1918.92
593.047	1928.02
593.494	1944.09
593.942	1930.1
594.389	1944.83
594.836	1928.78
595.284	1934.31
595.731	1956.34
596.178	1953.48
596.625	1969.36
597.072	1945.59
597.52	1956.48
597.967	1949.77
598.414	1963.71
598.861	1966.94
599.308	1957.97
599.755	1975
600.202	1966.82
600.649	1971.35
601.096	1969.87
601.543	1955.71
601.989	1966.13
602.436	1974.55
602.883	1972.66
603.33	1968.07
603.777	1977.32
604.223	1980.97
604.67	1984.23
605.117	1977.5
605.563	1975.03
606.01	1982.51
606.456	1975.39
606.903	1969.22
607.35	1984.41
607.796	1979.08
608.243	1984.71
608.689	1985.01
609.135	1987.12
609.582	1975.7
610.028	1990.66
610.474	1982.83
610.921	1995.54
611.367	1980.05
611.813	1992.53
612.26	1986.72
612.706	1996.47
613.152	1997.34
613.598	2017.55
614.044	1990.99
614.49	2000.23
614.936	2016.7
615.382	1997.68
615.828	1999.52
616.274	2008.8
616.72	1985.51
617.166	1996.57
617.612	2001.11
618.058	2013.35
618.504	2012.53
618.95	1994.33
619.395	2008.74
619.841	2025.35
620.287	1987.02
620.733	1999.24
621.178	1993.96
621.624	1990.92
622.069	1985.79
622.515	1991.52
622.961	1974.57
623.406	1990.84
623.852	1979.27
624.297	1965.48
624.743	1970.14
625.188	1960.91
625.633	1953.77
626.079	1937.82
626.524	1952.39
626.969	1947.12
627.415	1941.59
627.86	1932.77
628.305	1941.21
628.75	1944.9
629.196	1932.48
629.641	1923.38
630.086	1923.11
630.531	1920.27
630.976	1921.42
631.421	1914.38
631.866	1920.82
632.311	1903.45
632.756	1927.54
633.201	1897.61
633.646	1901.49
634.091	1904.42
634.535	1898.67
634.98	1933.09
635.425	1890.06
635.87	1891.17
636.314	1882.8
636.759	1891.49
637.204	1886.01
637.648	1882.39
638.093	1883.96
638.538	1871.55
638.982	1859.32
639.427	1856.16
639.871	1873.7
640.316	1867.76
640.76	1862.01
641.205	1859.13
641.649	1869.22
642.093	1859.89
642.538	1874.4
642.982	1895.6
643.426	1866.46
643.87	1893.02
644.315	1877.16
644.759	1872.5
645.203	1882.97
645.647	1892.19
646.091	1876.66
646.535	1890.21
646.979	1894.73
647.423	1887.38
647.867	1895.01
648.311	1888.41
648.755	1885.8
649.199	1892.16
649.643	1883.56
650.087	1873.04
650.531	1864.23
650.975	1877.02
651.418	1859.47
651.862	1875.3
652.306	1869.96
652.75	1836.23
653.193	1854.2
653.637	1829.96
654.08	1833.43
654.524	1816.4
654.968	1813.8
655.411	1805.28
655.855	1801.08
656.298	1794.36
656.741	1803.5
657.185	1808.06
657.628	1800.12
658.072	1802.36
658.515	1783.02
658.958	1787.23
659.401	1802.56
659.845	1796.44
660.288	1796.25
660.731	1780.78
661.174	1799.87
661.617	1796.29
662.06	1807.89
662.504	1811.42
662.947	1800.03
663.39	1799.04
663.833	1812.62
664.276	1817.87
664.718	1814.54
665.161	1823.53
665.604	1810.97
666.047	1818.76
666.49	1815.65
666.933	1821.19
667.375	1831.59
667.818	1827.28
668.261	1834.41
668.703	1829.14
669.146	1826.13
669.589	1834.36
670.031	1829.88
670.474	1838.38
670.916	1837
671.359	1828.65
671.801	1828.82
672.244	1831.1
672.686	1833.54
673.129	1838.25
673.571	1835.61
674.013	1852.84
674.456	1840.28
674.898	1840.11
675.34	1836.4
675.782	1840.34
676.224	1849.33
676.667	1824.04
677.109	1844.17
677.551	1850.99
677.993	1848.42
678.435	1849.04
678.877	1874.33
679.319	1870.55
679.761	1885.18
680.203	1897.97
680.645	1902.83
681.087	1908.61
681.529	1911.49
681.97	1938.25
682.412	1939.25
682.854	1951.94
683.296	1949.99
683.737	1929.42
684.179	1951.95
684.621	1974.58
685.062	1949.7
685.504	1947.43
685.945	1959.15
686.387	1966.88
686.828	1963.66
687.27	1950.72
687.711	1951.64
688.153	1936.87
688.594	1961.13
689.035	1917.12
689.477	1924.8
689.918	1918.44
690.359	1903.86
690.801	1898.44
691.242	1886.64
691.683	1883.67
692.124	1865.3
692.565	1854.69
693.006	1854.2
693.447	1830.52
693.889	1821.7
694.33	1805.73
694.771	1790.47
695.211	1793.96
695.652	1776.83
696.093	1770.79
696.534	1764.07
696.975	1745.25
697.416	1744.47
697.857	1740.17
698.297	1739.08
698.738	1739.23
699.179	1733.32
699.619	1727.57
700.06	1718.42
700.501	1739.76
700.941	1713.69
701.382	1697.79
701.822	1704.68
702.263	1713.54
702.703	1702.29
703.144	1706.48
703.584	1702.01
704.025	1710.48
704.465	1682.3
704.905	1705.7
705.346	1710.2
705.786	1711.96
706.226	1728.53
706.666	1726.43
707.106	1728.74
707.547	1735.27
707.987	1746.41
708.427	1763.68
708.867	1765.18
709.307	1793.56
709.747	1800.98
710.187	1798.65
710.627	1826.68
711.067	1821.66
711.507	1840.48
711.947	1834.7
712.386	1839.95
712.826	1838.91
713.266	1845.35
713.706	1850.64
714.145	1847.17
714.585	1851.43
715.025	1890.82
715.464	1832.08
715.904	1833.47
716.344	1814.01
716.783	1823.08
717.223	1794.38
717.662	1784.63
718.102	1780.26
718.541	1759.51
718.98	1733.7
719.42	1733.04
719.859	1730.37
720.298	1720.93
720.738	1719.04
721.177	1713.44
721.616	1701.4
722.055	1685.01
722.495	1692.7
722.934	1693.79
723.373	1681.13
723.812	1694.66
724.251	1690.01
724.69	1694.46
725.129	1694.41
725.568	1705.21
726.007	1723.26
726.446	1733.95
726.885	1759.58
727.323	1765.33
727.762	1775.92
728.201	1783.8
728.64	1804.84
729.079	1822.1
729.517	1845.94
729.956	1850.47
730.395	1868.7
730.833	1885.28
731.272	1899.22
731.71	1898.78
732.149	1904.11
732.587	1902.34
733.026	1892.17
733.464	1900.97
733.903	1888.15
734.341	1868.32
734.779	1854.97
735.218	1851.14
735.656	1838.35
736.094	1832.37
736.532	1816.17
736.971	1807.11
737.409	1786.84
737.847	1794.94
738.285	1792.31
738.723	1795.49
739.161	1788.46
739.599	1777.27
740.037	1818.94
740.475	1775.97
740.913	1788.16
741.351	1770.35
741.789	1784.59
742.227	1762.72
742.665	1776.28
743.102	1770.88
743.54	1758.69
743.978	1763.54
744.416	1751.42
744.853	1749.91
745.291	1735.76
745.729	1732.25
746.166	1732.54
746.604	1720.52
747.041	1718.41
747.479	1725.14
747.916	1715.06
748.354	1709.97
748.791	1709.45
749.228	1700.76
749.666	1696.69
750.103	1704.99
750.54	1692.73
750.978	1681.46
751.415	1679.82
751.852	1688.81
752.289	1684.63
752.726	1666.47
753.164	1663.88
753.601	1657.95
754.038	1660.51
754.475	1656.93
754.912	1652.02
755.349	1656.37
755.786	1636.41
756.223	1648.03
756.659	1657.53
757.096	1662.74
757.533	1666.65
757.97	1677.73
758.407	1684.42
758.843	1713.89
759.28	1745.17
759.717	1791.76
760.153	1868.69
760.59	1944.58
761.027	2021.4
761.463	2113.85
761.9	2165.17
762.336	2216.14
762.773	2254.67
763.209	2271.12
763.646	2281.61
764.082	2279.72
764.518	2284.32
764.955	2279.51
765.391	2245.31
765.827	2216.56
766.263	2166.81
766.7	2120.08
767.136	1994.31
767.572	1914.76
768.008	1845.45
768.444	1769.65
768.88	1685.41
769.316	1648.71
769.752	1597.2
770.188	1542.48
770.624	1528.57
771.06	1503.27
771.496	1492.03
771.932	1469.13
772.367	1441.32
772.803	1438.17
773.239	1408.82
773.675	1405.32
774.11	1396.2
774.546	1396.8
774.982	1372.15
775.417	1361.24
775.853	1353.09
776.288	1350.44
776.724	1343.15
777.159	1321.56
777.595	1316.83
