Data from T_1_B_MAYP1165941__0__19-50-53-036.txt Node

Date: Wed May 31 19:50:53 JST 2023
User: takis
Spectrometer: MAYP116594
Trigger mode: 0
Integration Time (sec): 5.000000E-2
Scans to average: 100
Electric dark correction enabled: true
Nonlinearity correction enabled: false
Boxcar width: 0
XAxis mode: Wavelengths
Number of Pixels in Spectrum: 2068
>>>>>Begin Spectral Data<<<<<
199.712	839.22
200.181	-155.18
200.65	30.68
201.119	-11.43
201.587	114.07
202.056	116.23
202.525	130.63
202.993	142.87
203.462	141.38
203.93	128.33
204.399	138.44
204.867	126.11
205.336	128.64
205.804	132.3
206.273	126.88
206.741	117.93
207.21	118.38
207.678	125.84
208.146	124.35
208.615	124.92
209.083	123.16
209.551	132.06
210.02	128.16
210.488	129.53
210.956	136.56
211.424	130.85
211.893	139.05
212.361	131.78
212.829	123.42
213.297	136.14
213.765	127.45
214.233	130.83
214.701	128.09
215.169	121.17
215.637	132.35
216.105	123
216.573	145.66
217.041	124.14
217.509	127.19
217.977	147.38
218.445	131.23
218.913	138.85
219.381	131.94
219.848	132.16
220.316	139.94
220.784	136.88
221.252	124
221.719	131.69
222.187	126.68
222.655	130.29
223.122	133.47
223.59	137.36
224.058	139.76
224.525	121.15
224.993	127.06
225.46	135.67
225.928	128.58
226.395	139.98
226.863	134.06
227.33	137.43
227.798	140.09
228.265	139.19
228.732	128.57
229.2	117.23
229.667	134.66
230.134	129.44
230.602	120.88
231.069	140.64
231.536	133.8
232.003	123.91
232.47	139.88
232.938	125.29
233.405	128.57
233.872	128.04
234.339	126.46
234.806	127.34
235.273	130.49
235.74	135.82
236.207	130.6
236.674	135.96
237.141	136.11
237.608	122.82
238.075	124.41
238.542	115.1
239.009	131
239.476	129.55
239.942	136.46
240.409	127.88
240.876	125.56
241.343	129.45
241.809	131.83
242.276	148.78
242.743	120.92
243.21	126.78
243.676	124.97
244.143	141.49
244.609	137.21
245.076	128.87
245.542	121.54
246.009	124.39
246.476	133.76
246.942	128.38
247.408	119.27
247.875	129.83
248.341	130.53
248.808	129.8
249.274	132.52
249.74	135.11
250.207	142.82
250.673	131.86
251.139	140.42
251.606	131.91
252.072	142.41
252.538	128.95
253.004	130.14
253.47	136.6
253.936	135.05
254.403	138.78
254.869	132.73
255.335	127.39
255.801	130.65
256.267	122.4
256.733	132.96
257.199	135.92
257.665	122.75
258.131	121.86
258.596	136.94
259.062	137.46
259.528	126.03
259.994	126.88
260.46	128.45
260.926	120.4
261.391	120.45
261.857	134.28
262.323	131.97
262.789	129.74
263.254	139.47
263.72	127.91
264.185	129.36
264.651	138.37
265.117	132.16
265.582	132.5
266.048	135.99
266.513	127.08
266.979	126.83
267.444	123.01
267.91	123.41
268.375	126.24
268.84	110.84
269.306	132.85
269.771	125.71
270.236	124.96
270.702	140.65
271.167	124.02
271.632	137.26
272.098	128.88
272.563	126.6
273.028	121.79
273.493	123.24
273.958	132.52
274.423	128.67
274.888	138.29
275.353	120.75
275.819	122.2
276.284	122.61
276.749	129.54
277.214	140.46
277.678	141.26
278.143	121.32
278.608	127.7
279.073	128.15
279.538	135.96
280.003	124.11
280.468	133.22
280.932	127.31
281.397	131.87
281.862	133.3
282.327	124.15
282.791	135.44
283.256	123.53
283.721	129.2
284.185	133.35
284.65	131.02
285.114	126.17
285.579	125.35
286.044	128.92
286.508	117.87
286.973	132.51
287.437	139.75
287.901	123.13
288.366	146.09
288.83	129.98
289.295	133.69
289.759	116.8
290.223	133.39
290.687	129.93
291.152	141.56
291.616	130.24
292.08	131.15
292.544	130.9
293.009	134.31
293.473	148.93
293.937	135.82
294.401	130.26
294.865	139.9
295.329	130.43
295.793	118.75
296.257	122.46
296.721	124.62
297.185	131.02
297.649	118.61
298.113	125.48
298.577	125.29
299.041	126.43
299.505	138.55
299.968	119.66
300.432	141.63
300.896	132.06
301.36	141.07
301.823	138.3
302.287	120.63
302.751	125.11
303.214	120.88
303.678	134.18
304.142	128.61
304.605	119.44
305.069	139.86
305.532	146.18
305.996	138.13
306.459	134.64
306.923	137.77
307.386	121.5
307.85	120.2
308.313	123.01
308.776	124.07
309.24	129.88
309.703	131.37
310.166	138.46
310.63	126.44
311.093	127.09
311.556	140.1
312.019	121.11
312.482	123.61
312.946	126.96
313.409	131.79
313.872	123.08
314.335	134.01
314.798	127.14
315.261	141.23
315.724	118.96
316.187	135.1
316.65	121.03
317.113	117.91
317.576	132.75
318.039	130.1
318.502	137.29
318.964	124.08
319.427	127.4
319.89	123.57
320.353	138.79
320.816	122.16
321.278	133.81
321.741	127.02
322.204	123.49
322.666	128.24
323.129	124.6
323.592	131.72
324.054	128
324.517	129.06
324.979	118.72
325.442	121.68
325.904	129.14
326.367	139.1
326.829	121.97
327.292	137.29
327.754	115.57
328.216	122.72
328.679	126.65
329.141	126.76
329.603	141.81
330.066	130.18
330.528	126.65
330.99	122.87
331.452	133.39
331.914	124.85
332.377	132.18
332.839	123.19
333.301	130.38
333.763	138.59
334.225	127.41
334.687	121.53
335.149	133.78
335.611	116.01
336.073	122.52
336.535	130.93
336.997	133.46
337.459	123.31
337.92	137.44
338.382	133.79
338.844	139.18
339.306	130.26
339.768	126.6
340.229	141.19
340.691	130.15
341.153	137.82
341.614	124.2
342.076	115.66
342.538	119.79
342.999	125.95
343.461	129.2
343.922	140.38
344.384	130.58
344.845	129.32
345.307	124.3
345.768	162.25
346.23	130.5
346.691	117.61
347.153	137.41
347.614	125.3
348.075	121.03
348.536	127.62
348.998	127.06
349.459	132.2
349.92	163.02
350.381	127.31
350.843	141.8
351.304	130.41
351.765	142.57
352.226	115.05
352.687	124.94
353.148	124.93
353.609	139.31
354.07	132.95
354.531	133.47
354.992	125.11
355.453	130.06
355.914	139.16
356.375	142.63
356.836	123.88
357.297	125.32
357.757	125.87
358.218	121.24
358.679	124.68
359.14	129.31
359.6	126.11
360.061	141.57
360.522	131.14
360.982	132.49
361.443	128.01
361.904	127.8
362.364	137.94
362.825	141.61
363.285	147.22
363.746	145.54
364.206	141.73
364.667	131.61
365.127	134.43
365.588	139.27
366.048	139.68
366.508	143.07
366.969	132.44
367.429	143.03
367.889	145.42
368.349	138.2
368.81	139.94
369.27	147.99
369.73	152.6
370.19	139.87
370.65	151.09
371.11	150.02
371.57	157.25
372.031	164.94
372.491	178.07
372.951	165.01
373.411	187.45
373.871	175.58
374.33	191.28
374.79	174.97
375.25	198.9
375.71	226.88
376.17	209.59
376.63	220.87
377.09	244.36
377.549	233.41
378.009	236.86
378.469	260.27
378.928	272.4
379.388	262.93
379.848	296.11
380.307	312.17
380.767	325.28
381.227	323.54
381.686	348.21
382.146	384.01
382.605	386.66
383.065	400.77
383.524	403.96
383.983	448.45
384.443	451.75
384.902	461.85
385.361	492.55
385.821	495.84
386.28	542.57
386.739	560.53
387.199	572.41
387.658	607.43
388.117	614.37
388.576	653.68
389.035	677.74
389.494	694.88
389.954	735.47
390.413	765.34
390.872	792.04
391.331	846.48
391.79	865.45
392.249	899.78
392.708	929.65
393.166	980.2
393.625	1021.39
394.084	1071.15
394.543	1093.43
395.002	1152.38
395.461	1186.3
395.919	1221.35
396.378	1260.99
396.837	1316.24
397.296	1352.84
397.754	1417.97
398.213	1445.63
398.672	1517.86
399.13	1542.05
399.589	1576.37
400.047	1620.74
400.506	1658.43
400.964	1707.38
401.423	1728.94
401.881	1789.01
402.34	1831.34
402.798	1880.71
403.256	1926.7
403.715	1976.53
404.173	2014.04
404.631	2049.87
405.09	2114.73
405.548	2142.12
406.006	2204.47
406.464	2255.41
406.923	2306.2
407.381	2343.5
407.839	2391.02
408.297	2457.57
408.755	2496.57
409.213	2538.34
409.671	2570.13
410.129	2639.01
410.587	2697.38
411.045	2727.95
411.503	2773.97
411.961	2806.87
412.419	2858.01
412.876	2897.24
413.334	2929.89
413.792	2980.32
414.25	3030.76
414.708	3072.5
415.165	3119.25
415.623	3173.76
416.081	3198.51
416.538	3270.71
416.996	3295.02
417.454	3346.67
417.911	3386.24
418.369	3426.39
418.826	3478.6
419.284	3490.68
419.741	3530.51
420.199	3568.42
420.656	3627.44
421.113	3656.42
421.571	3672.96
422.028	3700.58
422.485	3730.13
422.943	3778.11
423.4	3792.36
423.857	3810.22
424.314	3836.07
424.772	3873.9
425.229	3902
425.686	3942.53
426.143	3953.11
426.6	4015.56
427.057	4033.53
427.514	4055.58
427.971	4095.8
428.428	4130.54
428.885	4166.99
429.342	4193.38
429.799	4247.25
430.256	4257.17
430.713	4303.4
431.17	4314.23
431.627	4351.62
432.083	4391.04
432.54	4429.95
432.997	4464.87
433.454	4503.76
433.91	4538.32
434.367	4592.46
434.824	4631.75
435.28	4665.6
435.737	4711.62
436.193	4754.08
436.65	4788.32
437.106	4839.63
437.563	4869.6
438.019	4920.11
438.476	4954.96
438.932	4992.66
439.388	5016.51
439.845	5066
440.301	5095.57
440.757	5113.88
441.214	5145.48
441.67	5173.59
442.126	5209.64
442.582	5234.14
443.039	5267.86
443.495	5299.41
443.951	5335.92
444.407	5374.39
444.863	5451.71
445.319	5508.21
445.775	5545.96
446.231	5643.3
446.687	5702.88
447.143	5790.32
447.599	5876.38
448.055	5966.83
448.511	6032.25
448.967	6077.76
449.422	6153.59
449.878	6213.92
450.334	6259.69
450.79	6314.39
451.245	6355.27
451.701	6393.56
452.157	6422.33
452.612	6448.49
453.068	6459.91
453.524	6465.04
453.979	6476.5
454.435	6487.45
454.89	6532.21
455.346	6580.96
455.801	6613.71
456.257	6669.93
456.712	6729.6
457.168	6808.77
457.623	6889.79
458.078	6962.42
458.534	7031.85
458.989	7125.2
459.444	7228.75
459.899	7307.27
460.354	7460.19
460.81	7470.84
461.265	7564.32
461.72	7644.56
462.175	7757.68
462.63	7833.87
463.085	7966.46
463.54	8095.95
463.995	8217.06
464.45	8351.76
464.905	8482.02
465.36	8603.99
465.815	8675.81
466.27	8779.66
466.725	8862.62
467.18	8911.47
467.634	8984.58
468.089	9018.82
468.544	9095.58
468.999	9130.74
469.453	9155.61
469.908	9131.16
470.363	9114.32
470.817	9077.22
471.272	9018.02
471.726	8906.03
472.181	8801.93
472.635	8692.05
473.09	8627.43
473.544	8534.97
473.999	8438.13
474.453	8370.04
474.908	8328.69
475.362	8268.34
475.816	8208.19
476.271	8132.82
476.725	8078.17
477.179	8047.26
477.633	8044.1
478.087	8080.11
478.542	8136.42
478.996	8217.48
479.45	8250.12
479.904	8313.13
480.358	8358.72
480.812	8428.34
481.266	8473.34
481.72	8495.96
482.174	8522.61
482.628	8545.53
483.082	8529.53
483.536	8525.23
483.99	8484.39
484.444	8464.42
484.897	8405.51
485.351	8377.95
485.805	8336.2
486.259	8333.19
486.712	8326.2
487.166	8322.19
487.62	8342.22
488.073	8370.69
488.527	8420.63
488.981	8465
489.434	8518.79
489.888	8578.5
490.341	8626.4
490.795	8684.62
491.248	8711.68
491.701	8744.04
492.155	8749.91
492.608	8756.5
493.062	8747.51
493.515	8735.36
493.968	8703.89
494.421	8663.9
494.875	8629.76
495.328	8578.56
495.781	8543.54
496.234	8458.49
496.687	8408.75
497.14	8378.96
497.594	8348.04
498.047	8338.39
498.5	8317.98
498.953	8328.4
499.406	8331.24
499.859	8336.77
500.311	8356.81
500.764	8377.16
501.217	8390.52
501.67	8393.79
502.123	8421.14
502.576	8445.01
503.028	8485.96
503.481	8496.74
503.934	8504.36
504.387	8512.58
504.839	8537.13
505.292	8564.26
505.745	8569.04
506.197	8565.82
506.65	8608.17
507.102	8614.6
507.555	8628.16
508.007	8683.21
508.46	8661.39
508.912	8691.47
509.364	8722.07
509.817	8748.66
510.269	8756.28
510.721	8775.25
511.174	8801.61
511.626	8817.68
512.078	8860.45
512.531	8864.73
512.983	8889.9
513.435	8927.72
513.887	8932.74
514.339	8953.7
514.791	8962.59
515.243	8980.98
515.695	8987.87
516.147	9024.83
516.599	9030.84
517.051	9048.13
517.503	9058.81
517.955	9076.91
518.407	9092.12
518.859	9135.35
519.311	9117.84
519.762	9155.43
520.214	9176.27
520.666	9193.53
521.118	9195.95
521.569	9202.36
522.021	9230.22
522.473	9253.36
522.924	9239.19
523.376	9271.25
523.827	9294.49
524.279	9306.9
524.73	9308.84
525.182	9316.37
525.633	9353.97
526.085	9353.13
526.536	9371.27
526.987	9378.68
527.439	9387.67
527.89	9402
528.341	9393.13
528.793	9425.93
529.244	9426.08
529.695	9431.9
530.146	9457.11
530.597	9474.78
531.049	9467.48
531.5	9495.23
531.951	9503.26
532.402	9500.9
532.853	9526.45
533.304	9518.72
533.755	9557.14
534.206	9545.23
534.657	9580.19
535.108	9592.81
535.558	9570.94
536.009	9596.7
536.46	9605.67
536.911	9613.12
537.362	9638
537.812	9660.57
538.263	9666.28
538.714	9677.33
539.164	9687.51
539.615	9689.49
540.066	9709.28
540.516	9745.7
540.967	9760.03
541.417	9761.14
541.868	9761.53
542.318	9790.75
542.769	9799
543.219	9809.88
543.669	9826.9
544.12	9845.66
544.57	9857.63
545.02	9846.93
545.471	9879.59
545.921	9875.36
546.371	9877.29
546.821	9894.14
547.272	9904.19
547.722	9915.93
548.172	9937.09
548.622	9928.35
549.072	9942.84
549.522	9949.94
549.972	9944.97
550.422	9975.78
550.872	9985.22
551.322	9996.22
551.772	9996.82
552.222	10005.06
552.671	10026.09
553.121	10015.15
553.571	10063.23
554.021	10052.88
554.471	10056.33
554.92	10067.9
555.37	10091.14
555.82	10084.09
556.269	10087.96
556.719	10082.44
557.168	10078.83
557.618	10086.14
558.068	10091.97
558.517	10115.7
558.967	10127.52
559.416	10141.58
559.865	10135.68
560.315	10130.78
560.764	10103.97
561.213	10133.03
561.663	10135.69
562.112	10149.37
562.561	10160.41
563.011	10147.52
563.46	10163.01
563.909	10166.14
564.358	10174.38
564.807	10182.54
565.256	10190.58
565.705	10188.94
566.154	10216.43
566.603	10201.03
567.052	10206.88
567.501	10218.29
567.95	10216.58
568.399	10237.11
568.848	10233.22
569.297	10247.38
569.746	10246.18
570.195	10253.41
570.643	10272.48
571.092	10282
571.541	10281.55
571.989	10304.26
572.438	10293.37
572.887	10305.84
573.335	10318.53
573.784	10324.29
574.232	10318.34
574.681	10316.84
575.129	10324.28
575.578	10360.86
576.026	10342.02
576.475	10338.67
576.923	10341.79
577.372	10346.8
577.82	10351.15
578.268	10356.21
578.716	10348.67
579.165	10364.97
579.613	10384.82
580.061	10383.02
580.509	10369.5
580.957	10373.49
581.406	10401.3
581.854	10381.8
582.302	10402.91
582.75	10396.57
583.198	10416.56
583.646	10399.69
584.094	10406.42
584.542	10405.01
584.99	10380.61
585.437	10405.25
585.885	10395.26
586.333	10411.43
586.781	10396.86
587.229	10401.1
587.676	10390.39
588.124	10360.46
588.572	10357.85
589.019	10345.33
589.467	10313.79
589.915	10315.79
590.362	10286.84
590.81	10297.48
591.257	10278.35
591.705	10273.44
592.152	10250.7
592.6	10237.26
593.047	10215.23
593.494	10212.36
593.942	10161.56
594.389	10186.49
594.836	10152.44
595.284	10144.5
595.731	10154.45
596.178	10134.92
596.625	10131.04
597.072	10086.62
597.52	10093.43
597.967	10073.72
598.414	10068.36
598.861	10076.59
599.308	10057.49
599.755	10068.29
600.202	10045.62
600.649	10041.31
601.096	10039.4
601.543	10021.28
601.989	10039.13
602.436	10042.14
602.883	10044.1
603.33	10043.31
603.777	10028.83
604.223	10034.57
604.67	10039.13
605.117	10029.34
605.563	10023.09
606.01	10031.89
606.456	10014.26
606.903	10028.61
607.35	10033.42
607.796	10040.41
608.243	10049.37
608.689	10050.85
609.135	10061.82
609.582	10048.88
610.028	10066.58
610.474	10066.27
610.921	10081.85
611.367	10065.43
611.813	10087.57
612.26	10082.95
612.706	10109.41
613.152	10110.69
613.598	10135.57
614.044	10121.14
614.49	10110.54
614.936	10142.65
615.382	10133.63
615.828	10146.02
616.274	10156.55
616.72	10124.47
617.166	10136.8
617.612	10135.12
618.058	10151.09
618.504	10141.36
618.95	10124.25
619.395	10141.93
619.841	10157.71
620.287	10113.2
620.733	10102.22
621.178	10098.46
621.624	10090.9
622.069	10075.41
622.515	10069.7
622.961	10029.01
623.406	10032.74
623.852	10018.05
624.297	9982.8
624.743	9980.37
625.188	9945.28
625.633	9921.37
626.079	9890.22
626.524	9898.26
626.969	9881.26
627.415	9848
627.86	9826.19
628.305	9836.8
628.75	9820.44
629.196	9793.49
629.641	9779.36
630.086	9774.44
630.531	9757.63
630.976	9751.29
631.421	9714.44
631.866	9722.04
632.311	9698.68
632.756	9710.09
633.201	9669.1
633.646	9665.24
634.091	9651.16
634.535	9631.49
634.98	9666.89
635.425	9592.41
635.87	9589.39
636.314	9559.39
636.759	9564.87
637.204	9537.62
637.648	9545.4
638.093	9526.95
638.538	9502.55
638.982	9492.04
639.427	9481.92
639.871	9492.3
640.316	9472.35
640.76	9467.4
641.205	9482.49
641.649	9476.07
642.093	9478.75
642.538	9496.38
642.982	9525.62
643.426	9494.19
643.87	9541.81
644.315	9520.78
644.759	9533.2
645.203	9574.55
645.647	9585.49
646.091	9587.03
646.535	9607.07
646.979	9623.08
647.423	9618.45
647.867	9624.46
648.311	9617.15
648.755	9608.17
649.199	9591.68
649.643	9578.66
650.087	9548.22
650.531	9525.9
650.975	9509.94
651.418	9468.57
651.862	9462.92
652.306	9426.89
652.75	9362.59
653.193	9364.25
653.637	9308.72
654.08	9288.1
654.524	9247.04
654.968	9226.45
655.411	9205.63
655.855	9185.67
656.298	9160.03
656.741	9166.96
657.185	9167.42
657.628	9145.93
658.072	9157.21
658.515	9121.66
658.958	9128.12
659.401	9150.77
659.845	9133.8
660.288	9136.53
660.731	9124.38
661.174	9158.64
661.617	9158.05
662.06	9179.24
662.504	9189.66
662.947	9181.35
663.39	9203.19
663.833	9226.34
664.276	9240.62
664.718	9245.56
665.161	9263.86
665.604	9258.13
666.047	9281.08
666.49	9289.87
666.933	9289.53
667.375	9315.5
667.818	9320.02
668.261	9329.31
668.703	9322.86
669.146	9333.85
669.589	9343.11
670.031	9348.41
670.474	9360.46
670.916	9367.57
671.359	9378.98
671.801	9366.31
672.244	9378.24
672.686	9388.58
673.129	9392.05
673.571	9391.96
674.013	9397.67
674.456	9401.16
674.898	9408.13
675.34	9398.68
675.782	9399.43
676.224	9422.67
676.667	9398.42
677.109	9431.41
677.551	9444.46
677.993	9456.91
678.435	9477.41
678.877	9550.79
679.319	9579.3
679.761	9656.63
680.203	9726.03
680.645	9760
681.087	9786.62
681.529	9831.77
681.97	9885.49
682.412	9920.09
682.854	9949.7
683.296	9975.35
683.737	9981.51
684.179	10026.59
684.621	10049.7
685.062	10028.38
685.504	10031.25
685.945	10034.15
686.387	10016.34
686.828	10007.48
687.27	9980.78
687.711	9971.61
688.153	9924.44
688.594	9923.89
689.035	9849.44
689.477	9831.31
689.918	9781.38
690.359	9740.62
690.801	9670.86
691.242	9630.23
691.683	9565.83
692.124	9496.65
692.565	9424.8
693.006	9380.16
693.447	9300.83
693.889	9253.47
694.33	9196.67
694.771	9126.39
695.211	9082.72
695.652	9031.35
696.093	8996.45
696.534	8955.24
696.975	8901.23
697.416	8862.15
697.857	8825.7
698.297	8807.04
698.738	8779.39
699.179	8760.61
699.619	8736.84
700.06	8706.87
700.501	8708.94
700.941	8676.84
701.382	8632.7
701.822	8628.5
702.263	8624.36
702.703	8615.53
703.144	8608.95
703.584	8606.84
704.025	8620.25
704.465	8594.49
704.905	8625.95
705.346	8637.7
705.786	8659.97
706.226	8698.43
706.666	8707.93
707.106	8736.5
707.547	8782.52
707.987	8843.83
708.427	8909.92
708.867	8952.08
709.307	9020.26
709.747	9072.7
710.187	9112.7
710.627	9169.07
711.067	9203.02
711.507	9254.49
711.947	9270.34
712.386	9294.02
712.826	9309.29
713.266	9308.34
713.706	9310.17
714.145	9301.71
714.585	9281.61
715.025	9248.88
715.464	9215.86
715.904	9156.84
716.344	9101.5
716.783	9048.17
717.223	8973.35
717.662	8916.98
718.102	8862.65
718.541	8794.52
718.98	8717.17
719.42	8677.78
719.859	8625.13
720.298	8581.62
720.738	8525.82
721.177	8495.78
721.616	8455.95
722.055	8415.34
722.495	8401.46
722.934	8385.29
723.373	8378.95
723.812	8387.46
724.251	8401.64
724.69	8429.2
725.129	8447.79
725.568	8493.63
726.007	8548.47
726.446	8585.2
726.885	8662.3
727.323	8706.93
727.762	8778.5
728.201	8848.96
728.64	8935.86
729.079	9030.42
729.517	9129.47
729.956	9194.44
730.395	9269.97
730.833	9331.92
731.272	9380.77
731.71	9404.36
732.149	9411.91
732.587	9409.06
733.026	9376.16
733.464	9371.97
733.903	9324.24
734.341	9271.09
734.779	9201.38
735.218	9146.48
735.656	9091.57
736.094	9024.79
736.532	8952.58
736.971	8904.92
737.409	8840.18
737.847	8817.86
738.285	8780.37
738.723	8769.77
739.161	8756.26
739.599	8734.83
740.037	8778.58
740.475	8736.48
740.913	8739.83
741.351	8714.89
741.789	8707.15
742.227	8684.3
742.665	8666.72
743.102	8645.32
743.54	8614.8
743.978	8599.57
744.416	8557.62
744.853	8511.96
745.291	8469
745.729	8438.78
746.166	8410.26
746.604	8390.35
747.041	8358.98
747.479	8345.48
747.916	8315.72
748.354	8302.18
748.791	8285.78
749.228	8259.23
749.666	8241.01
750.103	8228
750.54	8205.95
750.978	8171.57
751.415	8155.79
751.852	8129.33
752.289	8109.25
752.726	8053.82
753.164	8033.12
753.601	7991.75
754.038	7975.56
754.475	7955.35
754.912	7937.52
755.349	7926.42
755.786	7902.25
756.223	7922.62
756.659	7940.71
757.096	7986.99
757.533	8015.75
757.97	8066.44
758.407	8141.86
758.843	8244.65
759.28	8404.83
759.717	8640.97
760.153	8996.29
760.59	9407.16
761.027	9831.66
761.463	10234.39
761.9	10554.07
762.336	10792.05
762.773	10973.08
763.209	11088.45
763.646	11154.26
764.082	11156.42
764.518	11136.66
764.955	11083.02
765.391	10947.92
765.827	10755.66
766.263	10495.28
766.7	10156.34
767.136	9685.99
767.572	9266.02
768.008	8860.96
768.444	8487.41
768.88	8130.23
769.316	7859.41
769.752	7620.85
