Data from T_1_S_MAYP1165941__2__19-57-18-001.txt Node

Date: Wed May 31 19:57:18 JST 2023
User: takis
Spectrometer: MAYP116594
Trigger mode: 0
Integration Time (sec): 5.000000E-2
Scans to average: 100
Electric dark correction enabled: true
Nonlinearity correction enabled: false
Boxcar width: 0
XAxis mode: Wavelengths
Number of Pixels in Spectrum: 2068
>>>>>Begin Spectral Data<<<<<
199.712	841.55
200.181	-156.26
200.65	30.56
201.119	-11.67
201.587	111.22
202.056	111.31
202.525	121.97
202.993	133.91
203.462	129.95
203.93	117.17
204.399	128.77
204.867	115.89
205.336	120.47
205.804	121.8
206.273	117.6
206.741	107.56
207.21	107.93
207.678	115.49
208.146	113.26
208.615	113.91
209.083	113.77
209.551	121.24
210.02	117.9
210.488	119.24
210.956	126.89
211.424	123.64
211.893	130.09
212.361	122.17
212.829	111.66
213.297	128.13
213.765	118.02
214.233	121.31
214.701	121.57
215.169	111.05
215.637	122.4
216.105	113.2
216.573	137.83
217.041	113.43
217.509	118.81
217.977	140.31
218.445	121.95
218.913	129.82
219.381	123.26
219.848	123.65
220.316	130.62
220.784	127.69
221.252	117.01
221.719	123.19
222.187	118.78
222.655	121.24
223.122	124.22
223.59	128.58
224.058	132.09
224.525	113.44
224.993	118.38
225.46	127.48
225.928	119.3
226.395	132.72
226.863	125.72
227.33	128.97
227.798	131.31
228.265	131.72
228.732	120.16
229.2	109.29
229.667	125.89
230.134	120.07
230.602	113.28
231.069	133.06
231.536	125.7
232.003	113.99
232.47	131.32
232.938	118.22
233.405	121.85
233.872	119.32
234.339	117.44
234.806	121.31
235.273	123
235.74	129.13
236.207	123
236.674	129.21
237.141	127.67
237.608	117.11
238.075	116.93
238.542	106.68
239.009	124.9
239.476	121.9
239.942	130.15
240.409	119.61
240.876	117.63
241.343	121.01
241.809	126.25
242.276	141.9
242.743	113.16
243.21	120.53
243.676	116.41
244.143	134.21
244.609	129.03
245.076	121
245.542	114.08
246.009	116.52
246.476	125.59
246.942	120.58
247.408	111.69
247.875	123.3
248.341	124.15
248.808	123.49
249.274	124.24
249.74	127.87
250.207	134.94
250.673	124.09
251.139	134.68
251.606	124.33
252.072	137.02
252.538	121
253.004	120.01
253.47	129.39
253.936	126.77
254.403	131.74
254.869	126.68
255.335	118.18
255.801	121.22
256.267	115.7
256.733	126.03
257.199	129.9
257.665	114.83
258.131	112.83
258.596	130.98
259.062	133.58
259.528	119.3
259.994	119.18
260.46	122.72
260.926	111.28
261.391	113.69
261.857	128.2
262.323	126.25
262.789	122.52
263.254	132.47
263.72	118.8
264.185	121.43
264.651	131.32
265.117	126.1
265.582	130.29
266.048	129.32
266.513	119.24
266.979	119.83
267.444	117.51
267.91	117.64
268.375	118.53
268.84	103.17
269.306	128.4
269.771	117.21
270.236	119.71
270.702	133.68
271.167	116.58
271.632	131.11
272.098	122.08
272.563	119.3
273.028	116.56
273.493	114.49
273.958	122.94
274.423	120.64
274.888	131.32
275.353	115.2
275.819	116.27
276.284	115.1
276.749	123.11
277.214	134.69
277.678	134.32
278.143	112.85
278.608	120.85
279.073	119.72
279.538	128.97
280.003	117.59
280.468	126.82
280.932	118.98
281.397	123.58
281.862	126.5
282.327	117.21
282.791	129.88
283.256	119.47
283.721	120.76
284.185	124.9
284.65	123.71
285.114	119.34
285.579	118.31
286.044	121.96
286.508	113.97
286.973	126.21
287.437	133.18
287.901	117.14
288.366	139.43
288.83	124.51
289.295	128.18
289.759	109.68
290.223	126.99
290.687	124.25
291.152	135.76
291.616	123.38
292.08	124.39
292.544	124.58
293.009	126.59
293.473	141.6
293.937	128.67
294.401	121.66
294.865	134.7
295.329	126.8
295.793	111.66
296.257	116.87
296.721	117.29
297.185	126.33
297.649	112.93
298.113	117.5
298.577	118.11
299.041	120.7
299.505	133.16
299.968	110.98
300.432	133.55
300.896	126.05
301.36	135.39
301.823	131.63
302.287	113.45
302.751	119.85
303.214	114.05
303.678	127.79
304.142	123.49
304.605	112.61
305.069	132.51
305.532	138.32
305.996	129.9
306.459	127.68
306.923	130.88
307.386	114.1
307.85	112.71
308.313	116.49
308.776	117.04
309.24	121.92
309.703	124.42
310.166	131.13
310.63	121.46
311.093	119.12
311.556	133.56
312.019	114.58
312.482	118.21
312.946	120.21
313.409	125.45
313.872	116.47
314.335	125.9
314.798	119.16
315.261	133.89
315.724	111.82
316.187	127.89
316.65	115.18
317.113	111.63
317.576	127.13
318.039	122.96
318.502	132.41
318.964	114.65
319.427	121.91
319.89	115.79
320.353	131.14
320.816	115.98
321.278	128.07
321.741	121.11
322.204	117.27
322.666	118.8
323.129	118.91
323.592	123.44
324.054	121.25
324.517	122.3
324.979	111.52
325.442	115.92
325.904	121.55
326.367	132.51
326.829	113.76
327.292	131.75
327.754	108.06
328.216	113.43
328.679	120.5
329.141	120.27
329.603	135.54
330.066	122.72
330.528	117.41
330.99	113.91
331.452	125.51
331.914	118.36
332.377	123.77
332.839	115.28
333.301	122.41
333.763	132.4
334.225	118.86
334.687	113.75
335.149	126.85
335.611	107.48
336.073	115.03
336.535	122.97
336.997	126.6
337.459	115.71
337.92	129.17
338.382	127.68
338.844	129.94
339.306	124.22
339.768	117.96
340.229	134.17
340.691	121.27
341.153	127.16
341.614	117.28
342.076	106.7
342.538	111.37
342.999	118.57
343.461	120.39
343.922	131.27
344.384	125.4
344.845	119.71
345.307	114.86
345.768	155.5
346.23	122.97
346.691	110.61
347.153	129.93
347.614	117.24
348.075	111.72
348.536	119.46
348.998	117.83
349.459	124.29
349.92	153.06
350.381	118.69
350.843	133.54
351.304	121.09
351.765	134.37
352.226	104.07
352.687	115.93
353.148	113.13
353.609	128.4
354.07	124.33
354.531	126.32
354.992	116.87
355.453	123.01
355.914	130.77
356.375	132.39
356.836	114.84
357.297	116.31
357.757	117.24
358.218	111
358.679	113.34
359.14	119.61
359.6	115.82
360.061	131.31
360.522	120.46
360.982	121.99
361.443	117.5
361.904	116.65
362.364	125.28
362.825	130.99
363.285	135.61
363.746	135.19
364.206	127.28
364.667	120.14
365.127	120.44
365.588	125.7
366.048	126.2
366.508	127.86
366.969	118
367.429	128.25
367.889	130.17
368.349	121.42
368.81	121.83
369.27	128.55
369.73	132.41
370.19	117.71
370.65	126.71
371.11	122.09
371.57	126.72
372.031	131.6
372.491	143.05
372.951	124.14
373.411	141.76
373.871	125.97
374.33	137.11
374.79	114.13
375.25	130
375.71	156.53
376.17	129.02
376.63	135.64
377.09	149.86
377.549	129.04
378.009	124.98
378.469	140.33
378.928	141.8
379.388	123.36
379.848	144.84
380.307	148.29
380.767	154.39
381.227	137.78
381.686	151.73
382.146	172.7
382.605	161.07
383.065	164.87
383.524	151.72
383.983	180.32
384.443	167.24
384.902	161.77
385.361	178.13
385.821	159.16
386.28	188.76
386.739	188.8
387.199	179.93
387.658	193.29
388.117	175.7
388.576	188.25
389.035	193.38
389.494	183.12
389.954	199.14
390.413	202.44
390.872	192.4
391.331	222.46
391.79	210.81
392.249	212.02
392.708	207.58
393.166	221.66
393.625	229.07
394.084	244.44
394.543	225.04
395.002	245.92
395.461	239.23
395.919	239.04
396.378	238.1
396.837	251.5
397.296	244.57
397.754	272.36
398.213	261.74
398.672	291.16
399.13	274.98
399.589	264.12
400.047	270.65
400.506	272.74
400.964	278.21
401.423	259.63
401.881	272.63
402.34	274.88
402.798	280.28
403.256	286.87
403.715	288.48
404.173	287.4
404.631	275.99
405.09	294.01
405.548	276.75
406.006	291.24
406.464	297.62
406.923	303.92
407.381	295.38
407.839	297.86
408.297	322.88
408.755	311.55
409.213	303.7
409.671	298.4
410.129	325.61
410.587	339.74
411.045	320.67
411.503	326.7
411.961	322.1
412.419	332.58
412.876	335.06
413.334	324.09
413.792	329.71
414.25	348.49
414.708	349.87
415.165	364.15
415.623	377.25
416.081	366.64
416.538	395.42
416.996	385.17
417.454	398.77
417.911	406.83
418.369	415.85
418.826	431.09
419.284	413.43
419.741	430.25
420.199	441.03
420.656	472.73
421.113	479.56
421.571	474.23
422.028	490.23
422.485	494.8
422.943	524.18
423.4	522.66
423.857	534.63
424.314	543.14
424.772	561.6
425.229	580.33
425.686	588.94
426.143	599.82
426.6	628.48
427.057	637.01
427.514	639.37
427.971	665.92
428.428	680.25
428.885	695.84
429.342	714.65
429.799	745.53
430.256	741.63
430.713	775.18
431.17	776.77
431.627	786.9
432.083	810.03
432.54	819.47
432.997	840.95
433.454	862.94
433.91	875.48
434.367	902.28
434.824	928.15
435.28	934.24
435.737	962.07
436.193	972.2
436.65	993.53
437.106	1014.98
437.563	1040.3
438.019	1068.99
438.476	1081.19
438.932	1099.89
439.388	1114.81
439.845	1137.47
440.301	1150.54
440.757	1170.08
441.214	1192.07
441.67	1206.48
442.126	1222.74
442.582	1237.37
443.039	1261.97
443.495	1270.81
443.951	1293.65
444.407	1303.12
444.863	1350.56
445.319	1371.18
445.775	1373.26
446.231	1421.04
446.687	1439.35
447.143	1463.74
447.599	1501.59
448.055	1533.77
448.511	1556.31
448.967	1567.23
449.422	1606.91
449.878	1626.96
450.334	1634.96
450.79	1655.48
451.245	1681.88
451.701	1702.62
452.157	1716.9
452.612	1721.18
453.068	1738.07
453.524	1751.67
453.979	1775.81
454.435	1761.36
454.89	1797.57
455.346	1819.02
455.801	1827.24
456.257	1858.84
456.712	1871.63
457.168	1910.5
457.623	1937.43
458.078	1960.63
458.534	1981.69
458.989	2010.6
459.444	2052.67
459.899	2080.6
460.354	2172.13
460.81	2123.4
461.265	2165.64
461.72	2199.64
462.175	2244.69
462.63	2253.01
463.085	2307.19
463.54	2350.47
463.995	2390.23
464.45	2437.88
464.905	2479.25
465.36	2517.87
465.815	2546.01
466.27	2582.85
466.725	2620.76
467.18	2645.86
467.634	2658.68
468.089	2663.25
468.544	2702.81
468.999	2719.51
469.453	2740.38
469.908	2734.3
470.363	2728.2
470.817	2734.83
471.272	2738.72
471.726	2696.91
472.181	2680.48
472.635	2645.19
473.09	2646.12
473.544	2611.69
473.999	2578.6
474.453	2558.95
474.908	2560.4
475.362	2554.37
475.816	2541.47
476.271	2513.95
476.725	2505.91
477.179	2496.53
477.633	2516.39
478.087	2523.12
478.542	2542.97
478.996	2594.36
479.45	2595.98
479.904	2622.68
480.358	2633.38
480.812	2665.97
481.266	2675.52
481.72	2678.66
482.174	2701.67
482.628	2711.92
483.082	2720.87
483.536	2723.94
483.99	2719.05
484.444	2707.1
484.897	2701.21
485.351	2690.08
485.805	2678.15
486.259	2687.81
486.712	2701.66
487.166	2690.01
487.62	2710.03
488.073	2717.15
488.527	2729.11
488.981	2756.02
489.434	2766.41
489.888	2793.69
490.341	2821.27
490.795	2842.77
491.248	2858.65
491.701	2878.24
492.155	2873.98
492.608	2887.03
493.062	2889.94
493.515	2873.68
493.968	2870.03
494.421	2873.89
494.875	2854.8
495.328	2846.87
495.781	2851.39
496.234	2805.69
496.687	2800.6
497.14	2798.48
497.594	2782.87
498.047	2793.88
498.5	2793.42
498.953	2798.69
499.406	2799.92
499.859	2798.15
500.311	2819.31
500.764	2830.09
501.217	2834.3
501.67	2832.35
502.123	2852.79
502.576	2861.56
503.028	2890.54
503.481	2889.92
503.934	2892.38
504.387	2889.53
504.839	2902.73
505.292	2929.31
505.745	2927.17
506.197	2917.36
506.65	2950.93
507.102	2950.14
507.555	2955.64
508.007	2987.95
508.46	2968.76
508.912	2975.13
509.364	2990.41
509.817	3012.26
510.269	3018.04
510.721	3009.08
511.174	3026.53
511.626	3041.89
512.078	3062.99
512.531	3051.08
512.983	3071.86
513.435	3085.03
513.887	3093
514.339	3091.47
514.791	3098.14
515.243	3099.46
515.695	3089.71
516.147	3114.72
516.599	3116.88
517.051	3105.1
517.503	3119.1
517.955	3117.96
518.407	3136.66
518.859	3154.69
519.311	3119.63
519.762	3146.25
520.214	3139.1
520.666	3148.23
521.118	3155.98
521.569	3140.55
522.021	3165.89
522.473	3155.14
522.924	3148.59
523.376	3158.85
523.827	3165.05
524.279	3158.39
524.73	3147.07
525.182	3134.2
525.633	3154.15
526.085	3146.59
526.536	3159.41
526.987	3158.23
527.439	3148.84
527.89	3155.22
528.341	3137.56
528.793	3146.75
529.244	3136.89
529.695	3133.19
530.146	3140.78
530.597	3143.73
531.049	3130.82
531.5	3144.06
531.951	3145.98
532.402	3130.21
532.853	3137.66
533.304	3112.88
533.755	3141.69
534.206	3125.36
534.657	3145.04
535.108	3151.78
535.558	3133.52
536.009	3134.63
536.46	3138.19
536.911	3139.45
537.362	3151.55
537.812	3163.68
538.263	3156.76
538.714	3158.6
539.164	3164.9
539.615	3157.97
540.066	3178.4
540.516	3198.96
540.967	3211.21
541.417	3195.38
541.868	3199.15
542.318	3212.94
542.769	3229.19
543.219	3244.49
543.669	3253.99
544.12	3255.91
544.57	3293.71
545.02	3258.26
545.471	3304.45
545.921	3301.78
546.371	3305.71
546.821	3325.41
547.272	3336.47
547.722	3348.84
548.172	3373.44
548.622	3373.43
549.072	3379.63
549.522	3414.44
549.972	3415.66
550.422	3416.32
550.872	3438.81
551.322	3457.3
551.772	3467.92
552.222	3463.49
552.671	3490.96
553.121	3487.15
553.571	3532.07
554.021	3517.69
554.471	3533.57
554.92	3546.02
555.37	3562.59
555.82	3575.59
556.269	3572.35
556.719	3563.65
557.168	3572.96
557.618	3584.27
558.068	3588.71
558.517	3632.63
558.967	3617.82
559.416	3622.05
559.865	3629.93
560.315	3622.07
560.764	3600.68
561.213	3605.28
561.663	3625.48
562.112	3619
562.561	3625.06
563.011	3620.69
563.46	3622.75
563.909	3622.82
564.358	3630.2
564.807	3620.2
565.256	3614.31
565.705	3625.35
566.154	3641.36
566.603	3598.2
567.052	3602.19
567.501	3606.69
567.95	3603.32
568.399	3603.3
568.848	3603.04
569.297	3595.17
569.746	3573.02
570.195	3579.2
570.643	3590.7
571.092	3585.08
571.541	3580.79
571.989	3587.54
572.438	3561.28
572.887	3568.77
573.335	3572.72
573.784	3571.54
574.232	3573.23
574.681	3565.3
575.129	3577.2
575.578	3588.94
576.026	3579.04
576.475	3588.41
576.923	3604.45
577.372	3604.41
577.82	3612.17
578.268	3636.27
578.716	3639.79
579.165	3666.48
579.613	3675.87
580.061	3702.3
580.509	3714.73
580.957	3743.29
581.406	3765.95
581.854	3785.15
582.302	3803.47
582.75	3839.19
583.198	3855.68
583.646	3870.89
584.094	3876.87
584.542	3930.7
584.99	3929.18
585.437	3949.99
585.885	3973.12
586.333	4006.71
586.781	4018.36
587.229	4040.2
587.676	4053.46
588.124	4049.03
588.572	4078.03
589.019	4088.39
589.467	4087.05
589.915	4101.91
590.362	4102.68
590.81	4115.37
591.257	4121.19
591.705	4147.04
592.152	4133.63
592.6	4149.56
593.047	4141.67
593.494	4162.55
593.942	4148.95
594.389	4162.35
594.836	4148.24
595.284	4156.29
595.731	4176.03
596.178	4174.63
596.625	4184.02
597.072	4157.86
597.52	4171.98
597.967	4164.28
598.414	4179.07
598.861	4172.75
599.308	4177.64
599.755	4196.17
600.202	4184.94
600.649	4186.8
601.096	4190.38
601.543	4188.83
601.989	4200.21
602.436	4211.63
602.883	4206.57
603.33	4207.41
603.777	4217.77
604.223	4217.9
604.67	4223.14
605.117	4223.59
605.563	4226.58
606.01	4229.02
606.456	4221.89
606.903	4231
607.35	4248.67
607.796	4248.01
608.243	4256.59
608.689	4259.59
609.135	4274.63
609.582	4266.31
610.028	4276.06
610.474	4280.44
610.921	4288.64
611.367	4270.2
611.813	4293.75
612.26	4288.53
612.706	4310.64
613.152	4318.93
613.598	4331.26
614.044	4324.68
614.49	4329.88
614.936	4346.17
615.382	4328.64
615.828	4336.71
616.274	4350.48
616.72	4337.32
617.166	4340.32
617.612	4347.9
618.058	4361.7
618.504	4369.47
618.95	4340.53
619.395	4363.51
619.841	4373.31
620.287	4354.31
620.733	4357.09
621.178	4355.67
621.624	4344.48
622.069	4346.91
622.515	4355.38
622.961	4339.6
623.406	4342.61
623.852	4330.99
624.297	4321.06
624.743	4328.44
625.188	4314.19
625.633	4298.47
626.079	4291.01
626.524	4292.89
626.969	4290.54
627.415	4280.37
627.86	4274.83
628.305	4280.15
628.75	4277.73
629.196	4267.15
629.641	4253.88
630.086	4252.36
630.531	4251.49
630.976	4260.44
631.421	4242.74
631.866	4252.18
632.311	4240.79
632.756	4254.85
633.201	4234.72
633.646	4227.68
634.091	4224.32
634.535	4230.75
634.98	4256.57
635.425	4208.73
635.87	4218.47
636.314	4209.78
636.759	4208.64
637.204	4200.29
637.648	4199.3
638.093	4201.9
638.538	4189.88
638.982	4181.39
639.427	4174.63
639.871	4190.38
640.316	4187.07
640.76	4176.38
641.205	4181.47
641.649	4191.9
642.093	4193.75
642.538	4211.59
642.982	4229.02
643.426	4217.56
643.87	4246.01
644.315	4232.32
644.759	4222.4
645.203	4260.81
645.647	4262.81
646.091	4260.23
646.535	4274.22
646.979	4288.87
647.423	4278.68
647.867	4293.33
648.311	4288.31
648.755	4277.85
649.199	4294.31
649.643	4281.47
650.087	4271.86
650.531	4253.53
650.975	4260.59
651.418	4242.16
651.862	4254.03
652.306	4228.09
652.75	4199.16
653.193	4207.9
653.637	4177.32
654.08	4183.88
654.524	4150.43
654.968	4151.92
655.411	4137.84
655.855	4133.8
656.298	4126.16
656.741	4132.36
657.185	4134.7
657.628	4136.63
658.072	4136.73
658.515	4116.53
658.958	4126.75
659.401	4140
659.845	4137.41
660.288	4138.22
660.731	4132.7
661.174	4154.08
661.617	4155.26
662.06	4169.05
662.504	4174.14
662.947	4171.21
663.39	4178.82
663.833	4196.25
664.276	4211.23
664.718	4215.95
665.161	4219.55
665.604	4223.41
666.047	4231.53
666.49	4237.13
666.933	4238.57
667.375	4258.07
667.818	4269.54
668.261	4272.16
668.703	4271.21
669.146	4279.06
669.589	4292.52
670.031	4289.44
670.474	4299.84
670.916	4311.94
671.359	4309.65
671.801	4304.17
672.244	4312.73
672.686	4320.3
673.129	4326.33
673.571	4338.32
674.013	4352.94
674.456	4343.3
674.898	4353.77
675.34	4356.33
675.782	4360.84
676.224	4372.24
676.667	4358.22
677.109	4380.13
677.551	4400.96
677.993	4403.92
678.435	4407.91
678.877	4448.75
679.319	4462.83
679.761	4509.58
680.203	4546.32
680.645	4551.88
681.087	4575.51
681.529	4591.74
681.97	4637.25
682.412	4646.32
682.854	4662.82
683.296	4679.12
683.737	4676.84
684.179	4712.32
684.621	4732.8
685.062	4710.35
685.504	4715.53
685.945	4733.26
686.387	4722.32
686.828	4731.86
687.27	4713.58
687.711	4716.07
688.153	4701.95
688.594	4713.95
689.035	4671.43
689.477	4660.34
689.918	4647.9
690.359	4625.49
690.801	4608.02
691.242	4582.63
691.683	4562.91
692.124	4525.28
692.565	4502.92
693.006	4484.83
693.447	4460.2
693.889	4423.98
694.33	4403.49
694.771	4369.9
695.211	4359.7
695.652	4338.82
696.093	4327.6
696.534	4312.33
696.975	4279.49
697.416	4275.44
697.857	4260.45
698.297	4252.74
698.738	4249.6
699.179	4233.41
699.619	4227.58
700.06	4216.5
700.501	4235.26
700.941	4200.72
701.382	4187.59
701.822	4192.06
702.263	4203.24
702.703	4176.7
703.144	4199.46
703.584	4198.42
704.025	4215.78
704.465	4186.75
704.905	4211.82
705.346	4229
705.786	4231.23
706.226	4259.81
706.666	4268.99
707.106	4283.19
707.547	4308.86
707.987	4331.74
708.427	4372.58
708.867	4399.7
709.307	4441.24
709.747	4462.58
710.187	4477.69
710.627	4521.07
711.067	4534.26
711.507	4571.8
711.947	4577.44
712.386	4591.08
712.826	4601.43
713.266	4604.92
713.706	4598.57
714.145	4608.31
714.585	4606.05
715.025	4595.44
715.464	4572.95
715.904	4563.48
716.344	4524.32
716.783	4514.71
717.223	4473.09
717.662	4441.85
718.102	4430.85
718.541	4391.18
718.98	4353.44
719.42	4339.5
719.859	4322.47
720.298	4293.96
720.738	4288.67
721.177	4264.97
721.616	4250.07
722.055	4228.18
722.495	4220.4
722.934	4225.22
723.373	4210.73
723.812	4239.1
724.251	4235.67
724.69	4244.2
725.129	4259.72
725.568	4289.25
726.007	4320.21
726.446	4341.91
726.885	4383.62
727.323	4420.59
727.762	4450.39
728.201	4483.13
728.64	4529.82
729.079	4584.63
729.517	4637.24
729.956	4679.08
730.395	4719.67
730.833	4743.84
731.272	4781.8
731.71	4791.1
732.149	4795.17
732.587	4797.15
733.026	4772.94
733.464	4786.16
733.903	4758.39
734.341	4726.66
734.779	4708.45
735.218	4678.46
735.656	4653.98
736.094	4620.71
736.532	4585.21
736.971	4564.98
737.409	4526.53
737.847	4530.25
738.285	4514.35
738.723	4513.52
739.161	4507.85
739.599	4492.9
740.037	4539.86
740.475	4500.79
740.913	4513.5
741.351	4490.73
741.789	4495.05
742.227	4478.5
742.665	4481.94
743.102	4469.92
743.54	4460.73
743.978	4459.01
744.416	4435.72
744.853	4416.02
745.291	4388.79
745.729	4381.88
746.166	4368.25
746.604	4363.93
747.041	4347.71
747.479	4351.12
747.916	4324.69
748.354	4327.97
748.791	4318.51
749.228	4304.18
749.666	4303.48
750.103	4303.82
750.54	4283.34
750.978	4264.86
751.415	4266.13
751.852	4255.06
752.289	4247.08
752.726	4229.93
753.164	4206.1
753.601	4187.7
754.038	4183.32
754.475	4179.15
754.912	4175.69
755.349	4174.39
755.786	4159.28
756.223	4162.91
756.659	4176.78
757.096	4204.66
757.533	4230.93
757.97	4247.81
758.407	4293.24
758.843	4359.19
759.28	4430.68
759.717	4553.75
760.153	4761.55
760.59	4966.72
761.027	5188.17
761.463	5405
761.9	5570.63
762.336	5690.48
762.773	5794.53
763.209	5858.79
763.646	5894.61
764.082	5896.76
764.518	5885.68
764.955	5856.68
765.391	5791.99
765.827	5695.92
766.263	5564.78
766.7	5398.43
767.136	5137.64
767.572	4914.24
768.008	4714.56
768.444	4518.91
768.88	4323.23
769.316	4191.23
769.752	4073.15
770.188	3959.27
770.624	3886.91
771.06	3815.2
771.496	3771.48
771.932	3715.78
772.367	3663.14
772.803	3640.76
773.239	3590.53
773.675	3565.04
774.11	3545.59
774.546	3509.88
774.982	3469.51
775.417	3451.1
775.853	3425.91
776.288	3416.05
776.724	3391.71
777.159	3367
777.595	3350.18
778.03	3333.11
