Data from T_2_S_MAYP1165941__0__20-03-52-965.txt Node

Date: Wed May 31 20:03:52 JST 2023
User: takis
Spectrometer: MAYP116594
Trigger mode: 0
Integration Time (sec): 5.000000E-2
Scans to average: 100
Electric dark correction enabled: true
Nonlinearity correction enabled: false
Boxcar width: 0
XAxis mode: Wavelengths
Number of Pixels in Spectrum: 2068
>>>>>Begin Spectral Data<<<<<
199.712	843.19
200.181	-156.15
200.65	30.44
201.119	-10.69
201.587	113.54
202.056	111.28
202.525	122.39
202.993	135.08
203.462	132.19
203.93	117.62
204.399	127.13
204.867	115.74
205.336	120.64
205.804	123.8
206.273	117.39
206.741	108.16
207.21	109.92
207.678	116.33
208.146	112.53
208.615	113.38
209.083	113.27
209.551	122.8
210.02	118.38
210.488	121.13
210.956	126.23
211.424	122.58
211.893	131.03
212.361	123.17
212.829	111.78
213.297	128.17
213.765	118.43
214.233	123.43
214.701	120.72
215.169	112.5
215.637	122.65
216.105	114.44
216.573	140.99
217.041	114.71
217.509	119.31
217.977	141.67
218.445	122.82
218.913	132.29
219.381	123.37
219.848	124.31
220.316	132.02
220.784	130.89
221.252	117.16
221.719	124.37
222.187	120.5
222.655	122.77
223.122	127.17
223.59	130.45
224.058	133.85
224.525	112.41
224.993	119.67
225.46	128.32
225.928	120.63
226.395	134.73
226.863	126.87
227.33	130.7
227.798	132.37
228.265	133.4
228.732	122.08
229.2	108.66
229.667	127.29
230.134	121.51
230.602	114.15
231.069	134.27
231.536	125.41
232.003	118.39
232.47	132.94
232.938	116.73
233.405	121.56
233.872	121.06
234.339	117.75
234.806	120.94
235.273	123.43
235.74	131.4
236.207	125.37
236.674	127.71
237.141	129.14
237.608	118.05
238.075	118.9
238.542	108.54
239.009	126.15
239.476	122.9
239.942	132.21
240.409	121.1
240.876	119.56
241.343	121.87
241.809	125.69
242.276	143.83
242.743	113.31
243.21	120.57
243.676	119.81
244.143	134.13
244.609	131.37
245.076	121.59
245.542	116.31
246.009	117.14
246.476	127.99
246.942	124.73
247.408	112.51
247.875	124.45
248.341	124.82
248.808	123.12
249.274	125.97
249.74	129.89
250.207	135.98
250.673	125.82
251.139	135.47
251.606	125.81
252.072	137.1
252.538	122.83
253.004	124.84
253.47	132.15
253.936	128.65
254.403	132.59
254.869	128.73
255.335	120.85
255.801	124.37
256.267	116.34
256.733	129.14
257.199	130.9
257.665	117.09
258.131	115.3
258.596	132.04
259.062	133.27
259.528	121.85
259.994	120.16
260.46	123.52
260.926	113.51
261.391	114.23
261.857	129.81
262.323	128.15
262.789	123.53
263.254	136.37
263.72	120.11
264.185	122.42
264.651	132.63
265.117	126.48
265.582	131.76
266.048	130.34
266.513	121.52
266.979	121.67
267.444	118.14
267.91	118.53
268.375	121.85
268.84	103.73
269.306	127.5
269.771	119.27
270.236	120.44
270.702	134.92
271.167	118.66
271.632	131.36
272.098	124.99
272.563	121.2
273.028	117.42
273.493	115.32
273.958	125.86
274.423	121.21
274.888	134.21
275.353	113.81
275.819	116.45
276.284	115.51
276.749	124.95
277.214	135.61
277.678	138.07
278.143	114.19
278.608	121.44
279.073	121.23
279.538	130.92
280.003	119.03
280.468	128.37
280.932	121.81
281.397	125.72
281.862	128.8
282.327	119.86
282.791	130.54
283.256	118.09
283.721	120.2
284.185	127.29
284.65	126.54
285.114	121.41
285.579	120.21
286.044	125.62
286.508	114.13
286.973	128.82
287.437	134.48
287.901	118.43
288.366	141.55
288.83	124.12
289.295	128.9
289.759	111.87
290.223	129.11
290.687	126.02
291.152	137.07
291.616	124.48
292.08	126.03
292.544	126.14
293.009	127.22
293.473	144.52
293.937	132.36
294.401	123.74
294.865	137.12
295.329	128.21
295.793	111.83
296.257	117.73
296.721	118.71
297.185	125.72
297.649	114.01
298.113	119.3
298.577	118.46
299.041	122.24
299.505	135.6
299.968	113.79
300.432	136.81
300.896	128.46
301.36	136.36
301.823	133.15
302.287	113.93
302.751	120.35
303.214	115.7
303.678	129.06
304.142	124.01
304.605	112.83
305.069	134.66
305.532	139.65
305.996	133.98
306.459	129.07
306.923	135
307.386	114.52
307.85	115.65
308.313	118.27
308.776	118.76
309.24	123.05
309.703	125.47
310.166	132.87
310.63	121.91
311.093	121.7
311.556	133.44
312.019	117.74
312.482	117.82
312.946	123.37
313.409	127.62
313.872	115.71
314.335	128.51
314.798	122.84
315.261	138.46
315.724	112.76
316.187	128.92
316.65	116.11
317.113	113.25
317.576	127.49
318.039	124.43
318.502	134.57
318.964	117.24
319.427	123.75
319.89	118.62
320.353	134.05
320.816	117.07
321.278	128.35
321.741	121.45
322.204	118.58
322.666	122.66
323.129	119.91
323.592	126.27
324.054	119.94
324.517	121.24
324.979	112.23
325.442	117.86
325.904	123.67
326.367	135.45
326.829	114.57
327.292	131.43
327.754	110.02
328.216	114.53
328.679	121.56
329.141	120.37
329.603	135.86
330.066	126.07
330.528	118.39
330.99	117.33
331.452	127.67
331.914	119.28
332.377	125.06
332.839	118.22
333.301	124.2
333.763	133.85
334.225	119.05
334.687	116.01
335.149	130.21
335.611	108.54
336.073	116.3
336.535	127.23
336.997	126.83
337.459	116.87
337.92	131.64
338.382	129.02
338.844	133.03
339.306	124.39
339.768	118.04
340.229	136
340.691	123.48
341.153	131.09
341.614	116.55
342.076	109.13
342.538	111.86
342.999	118.98
343.461	123.3
343.922	135.81
344.384	127.01
344.845	121.74
345.307	115.66
345.768	158.06
346.23	122.57
346.691	109.8
347.153	131.06
347.614	118.31
348.075	112.29
348.536	118.25
348.998	120.02
349.459	123.12
349.92	156.59
350.381	120.13
350.843	135.44
351.304	121.4
351.765	135.75
352.226	104.76
352.687	116.01
353.148	114.15
353.609	132.12
354.07	125.03
354.531	127.4
354.992	117.29
355.453	123.17
355.914	132.36
356.375	135.26
356.836	114.46
357.297	117.84
357.757	118.75
358.218	110.42
358.679	115.43
359.14	121.51
359.6	118.95
360.061	132.18
360.522	122.47
360.982	122.06
361.443	117.85
361.904	115.4
362.364	128.15
362.825	131.6
363.285	138.72
363.746	136.77
364.206	130.58
364.667	120.24
365.127	122.5
365.588	128.21
366.048	127.47
366.508	129.7
366.969	117.24
367.429	127.23
367.889	130.54
368.349	121.09
368.81	124.17
369.27	129.84
369.73	131.49
370.19	115.62
370.65	126.97
371.11	121
371.57	127.03
372.031	132.26
372.491	143.29
372.951	123.09
373.411	140.97
373.871	125.79
374.33	135.46
374.79	112.78
375.25	128.04
375.71	153.34
376.17	127.04
376.63	130.5
377.09	145.45
377.549	126.63
378.009	119.82
378.469	134.16
378.928	135.21
379.388	114.91
379.848	137.01
380.307	141.68
380.767	145.79
381.227	128.29
381.686	140.72
382.146	163.37
382.605	150.83
383.065	152.28
383.524	139.34
383.983	168.62
384.443	153.97
384.902	146.22
385.361	160.64
385.821	143.26
386.28	170.9
386.739	166.26
387.199	157.95
387.658	171.01
388.117	153.86
388.576	165.16
389.035	167.6
389.494	155.44
389.954	172.71
390.413	172.67
390.872	164.08
391.331	188.44
391.79	175.27
392.249	176.25
392.708	173.23
393.166	182.82
393.625	191.94
394.084	202.71
394.543	179.63
395.002	201.26
395.461	191.36
395.919	189.6
396.378	187.29
396.837	199.26
397.296	192.54
397.754	217.26
398.213	203.78
398.672	234.71
399.13	217.01
399.589	203.27
400.047	207.24
400.506	207.24
400.964	210.67
401.423	189.61
401.881	203.88
402.34	204.7
402.798	209.85
403.256	213.98
403.715	214.12
404.173	212.29
404.631	199.97
405.09	218.02
405.548	199.25
406.006	209.47
406.464	213.82
406.923	221.06
407.381	211.4
407.839	209.76
408.297	237.18
408.755	222.84
409.213	214.43
409.671	206.12
410.129	231.63
410.587	242.21
411.045	226.16
411.503	233.52
411.961	220.72
412.419	230.62
412.876	228.95
413.334	217.83
413.792	223.22
414.25	237.46
414.708	238.69
415.165	251.04
415.623	262.62
416.081	247.44
416.538	272.05
416.996	260.45
417.454	271.02
417.911	274.76
418.369	281.51
418.826	293.61
419.284	272.22
419.741	282.34
420.199	288.36
420.656	321.11
421.113	319.03
421.571	310.32
422.028	325.77
422.485	324.03
422.943	353.24
423.4	347.48
423.857	355.03
424.314	357.03
424.772	372.41
425.229	387.53
425.686	393.67
426.143	397.36
426.6	424.09
427.057	429.1
427.514	425.63
427.971	446.89
428.428	460.7
428.885	469.07
429.342	481.58
429.799	511.26
430.256	503.34
430.713	530.27
431.17	524.09
431.627	535.6
432.083	556.11
432.54	557.78
432.997	573.64
433.454	590.84
433.91	604.73
434.367	624.87
434.824	645.96
435.28	647.83
435.737	665.9
436.193	676.78
436.65	690.88
437.106	712
437.563	725.86
438.019	752.31
438.476	765.96
438.932	780.06
439.388	790.01
439.845	807.89
440.301	819.9
440.757	829.95
441.214	853.31
441.67	863.4
442.126	878.12
442.582	887.46
443.039	917.35
443.495	914.23
443.951	931.72
444.407	940.22
444.863	980.16
445.319	995.36
445.775	995.3
446.231	1037.3
446.687	1043.51
447.143	1065.12
447.599	1097.94
448.055	1124.74
448.511	1139.22
448.967	1147.42
449.422	1174.59
449.878	1192.39
450.334	1201.1
450.79	1218.67
451.245	1231.54
451.701	1249.2
452.157	1267.44
452.612	1266.9
453.068	1282.75
453.524	1295.98
453.979	1318.27
454.435	1301.33
454.89	1330.71
455.346	1349.54
455.801	1355.79
456.257	1381.93
456.712	1382.2
457.168	1421.84
457.623	1442.59
458.078	1457.17
458.534	1475.52
458.989	1492.94
459.444	1529.82
459.899	1555.67
460.354	1639.14
460.81	1582.97
461.265	1622.16
461.72	1643.65
462.175	1688.71
462.63	1680.54
463.085	1722.45
463.54	1758.08
463.995	1782.85
464.45	1825.51
464.905	1855.19
465.36	1887.98
465.815	1904.32
466.27	1937.31
466.725	1962.51
467.18	1983.29
467.634	1996.94
468.089	2000.19
468.544	2032.58
468.999	2044.93
469.453	2069.19
469.908	2052.64
470.363	2049.66
470.817	2059.04
471.272	2062.81
471.726	2033.91
472.181	2024.45
472.635	1995.66
473.09	1999.11
473.544	1965.56
473.999	1948.75
474.453	1930.55
474.908	1940.51
475.362	1931.78
475.816	1925.01
476.271	1900.92
476.725	1891.71
477.179	1895.55
477.633	1910
478.087	1915.7
478.542	1929.08
478.996	1970.92
479.45	1971.41
479.904	1991.45
480.358	2009.55
480.812	2026.76
481.266	2036.79
481.72	2037.63
482.174	2045.24
482.628	2062.46
483.082	2071.06
483.536	2072.45
483.99	2069.67
484.444	2067.5
484.897	2058.53
485.351	2049.56
485.805	2043.14
486.259	2048.93
486.712	2065.61
487.166	2057.84
487.62	2067.85
488.073	2071.91
488.527	2076.05
488.981	2102.04
489.434	2109.11
489.888	2126.87
490.341	2150.61
490.795	2169.57
491.248	2177.64
491.701	2205.61
492.155	2193.91
492.608	2209.06
493.062	2195.83
493.515	2192.04
493.968	2189.2
494.421	2188.91
494.875	2180.65
495.328	2178.12
495.781	2190.61
496.234	2149.09
496.687	2147.47
497.14	2136.28
497.594	2138.16
498.047	2140.68
498.5	2133.56
498.953	2140.34
499.406	2143.75
499.859	2138.54
500.311	2156.4
500.764	2166.91
501.217	2172.69
501.67	2165.26
502.123	2187.55
502.576	2194.05
503.028	2210.24
503.481	2214.81
503.934	2217.27
504.387	2210.03
504.839	2224.28
505.292	2246.49
505.745	2243.7
506.197	2225.24
506.65	2260.38
507.102	2255.94
507.555	2262.33
508.007	2288.56
508.46	2271.94
508.912	2276.81
509.364	2295.1
509.817	2308.9
510.269	2306.25
510.721	2304.18
511.174	2309.72
511.626	2322.09
512.078	2338.62
512.531	2323.75
512.983	2338.12
513.435	2362.34
513.887	2365.33
514.339	2358.22
514.791	2369.85
515.243	2361.28
515.695	2356.11
516.147	2379.96
516.599	2376.42
517.051	2366.6
517.503	2372.77
517.955	2377.43
518.407	2382.3
518.859	2406.51
519.311	2367.84
519.762	2386.43
520.214	2382.99
520.666	2384.91
521.118	2393.16
521.569	2379.52
522.021	2391.22
522.473	2395.53
522.924	2375.34
523.376	2382.48
523.827	2383.81
524.279	2374.66
524.73	2367.94
525.182	2358.44
525.633	2361.72
526.085	2361.94
526.536	2363.55
526.987	2367.56
527.439	2354.51
527.89	2351.04
528.341	2334.47
528.793	2346.64
529.244	2338.45
529.695	2324.16
530.146	2334.82
530.597	2335.38
531.049	2316.01
531.5	2330.46
531.951	2329.96
532.402	2318.7
532.853	2318.36
533.304	2296.08
533.755	2318.53
534.206	2304.77
534.657	2318.17
535.108	2327.65
535.558	2292.01
536.009	2301.69
536.46	2297.61
536.911	2310.35
537.362	2307.51
537.812	2330.82
538.263	2319.72
538.714	2315.24
539.164	2321.27
539.615	2309.14
540.066	2333.51
540.516	2345.64
540.967	2362.36
541.417	2345.03
541.868	2342.77
542.318	2365.68
542.769	2369.24
543.219	2382.01
543.669	2388.99
544.12	2392.78
544.57	2429.22
545.02	2397.05
545.471	2437.12
545.921	2431.64
546.371	2440.7
546.821	2452.1
547.272	2468.8
547.722	2478.35
548.172	2503.53
548.622	2500.66
549.072	2508.84
549.522	2530.19
549.972	2537.03
550.422	2551.13
550.872	2560.37
551.322	2570.59
551.772	2578.82
552.222	2590.04
552.671	2605.27
553.121	2593.52
553.571	2648.71
554.021	2630.37
554.471	2652.13
554.92	2659.9
555.37	2674.25
555.82	2686.83
556.269	2681.33
556.719	2676.9
557.168	2675.02
557.618	2685.17
558.068	2695.96
558.517	2733.47
558.967	2715.5
559.416	2724.99
559.865	2727.32
560.315	2720.65
560.764	2696.96
561.213	2714.18
561.663	2714.73
562.112	2718.5
562.561	2723.12
563.011	2714.24
563.46	2716.55
563.909	2709.68
564.358	2720.93
564.807	2705.38
565.256	2709.89
565.705	2711.28
566.154	2725.22
566.603	2680.98
567.052	2690.07
567.501	2689.32
567.95	2677.74
568.399	2680.81
568.848	2667.75
569.297	2667.95
569.746	2641.01
570.195	2645.89
570.643	2654.47
571.092	2648.9
571.541	2643.57
571.989	2638.63
572.438	2617.39
572.887	2622.53
573.335	2631.55
573.784	2622.55
574.232	2619
574.681	2613.95
575.129	2618.02
575.578	2638.03
576.026	2627.64
576.475	2631.19
576.923	2643.11
577.372	2650.19
577.82	2658.63
578.268	2685.04
578.716	2682.79
579.165	2703.1
579.613	2727.32
580.061	2744.6
580.509	2766.84
580.957	2787.06
581.406	2806.69
581.854	2824.45
582.302	2853.17
582.75	2877.24
583.198	2898.66
583.646	2921.43
584.094	2934.77
584.542	2974.46
584.99	2972.83
585.437	2998.38
585.885	3027.27
586.333	3058.35
586.781	3071.38
587.229	3093.6
587.676	3119.35
588.124	3112.69
588.572	3139.08
589.019	3158.3
589.467	3155.81
589.915	3175.54
590.362	3175.99
590.81	3192.03
591.257	3193.16
591.705	3224.48
592.152	3219.63
592.6	3231.45
593.047	3225.94
593.494	3247.19
593.942	3236.92
594.389	3249.02
594.836	3245.2
595.284	3248.74
595.731	3275.71
596.178	3268.36
596.625	3273.39
597.072	3259.11
597.52	3268.89
597.967	3272.13
598.414	3286.48
598.861	3283.48
599.308	3286.51
599.755	3301.21
600.202	3292.09
600.649	3291.35
601.096	3296.31
601.543	3293.38
601.989	3298.58
602.436	3304.58
602.883	3313.66
603.33	3308.11
603.777	3319.78
604.223	3322.34
604.67	3334.19
605.117	3326.58
605.563	3329.05
606.01	3332.28
606.456	3330.75
606.903	3333.38
607.35	3345.84
607.796	3350.05
608.243	3356.78
608.689	3348.87
609.135	3366.71
609.582	3357.23
610.028	3367.27
610.474	3364.79
610.921	3382.13
611.367	3365.21
611.813	3387.05
612.26	3382.1
612.706	3396.54
613.152	3409.83
613.598	3420.42
614.044	3403.27
614.49	3411.19
614.936	3432.53
615.382	3425.29
615.828	3420.52
616.274	3439.26
616.72	3421.91
617.166	3432.85
617.612	3431.22
618.058	3447.15
618.504	3452.88
618.95	3433.65
619.395	3450.95
619.841	3461.62
620.287	3431.43
620.733	3435.48
621.178	3430.98
621.624	3442.97
622.069	3435.49
622.515	3433.58
622.961	3420.27
623.406	3434.67
623.852	3421.39
624.297	3412.18
624.743	3415.87
625.188	3409.39
625.633	3390.43
626.079	3384.83
626.524	3396.09
626.969	3391.9
627.415	3383.25
627.86	3377.72
628.305	3378.41
628.75	3378.22
629.196	3372.71
629.641	3368.21
630.086	3356.5
630.531	3370.91
630.976	3362.51
631.421	3358.54
631.866	3365.74
632.311	3351.58
632.756	3376.4
633.201	3343.4
633.646	3350.98
634.091	3345.83
634.535	3336.4
634.98	3379.68
635.425	3336.4
635.87	3341.22
636.314	3327.31
636.759	3325.94
637.204	3328.58
637.648	3328.27
638.093	3325.26
638.538	3315.09
638.982	3308.3
639.427	3309.9
639.871	3321.32
640.316	3317.56
640.76	3308.5
641.205	3315.51
641.649	3324.5
642.093	3320.82
642.538	3337.63
642.982	3360.1
643.426	3339.28
643.87	3363.36
644.315	3350.84
644.759	3356.03
645.203	3373
645.647	3381.76
646.091	3372.4
646.535	3392.84
646.979	3397.23
647.423	3395.6
647.867	3406.08
648.311	3398.05
648.755	3397.31
649.199	3398.66
649.643	3396.45
650.087	3381.64
650.531	3374.9
650.975	3385.54
651.418	3361.68
651.862	3383.66
652.306	3365.62
652.75	3331.51
653.193	3344.97
653.637	3318.75
654.08	3315.42
654.524	3296.62
654.968	3296.04
655.411	3283.73
655.855	3280.81
656.298	3275.77
656.741	3281.74
657.185	3292.11
657.628	3277.23
658.072	3288.49
658.515	3269.75
658.958	3271.69
659.401	3295.95
659.845	3289.94
660.288	3289.32
660.731	3279.25
661.174	3299.86
661.617	3303.42
662.06	3321.82
662.504	3324.48
662.947	3320.56
663.39	3325.4
663.833	3340.93
664.276	3357.55
664.718	3350.56
665.161	3365.49
665.604	3350.38
666.047	3367.63
666.49	3373.59
666.933	3373.71
667.375	3393.37
667.818	3395.39
668.261	3405.1
668.703	3398.97
669.146	3406.36
669.589	3420.26
670.031	3422.31
670.474	3426
670.916	3436.92
671.359	3436.09
671.801	3427.01
672.244	3431.99
672.686	3445.94
673.129	3452.38
673.571	3452.54
674.013	3477.61
674.456	3465.59
674.898	3477.22
675.34	3469.04
675.782	3483.23
676.224	3484.16
676.667	3477.39
677.109	3496.42
677.551	3509.31
677.993	3514.73
678.435	3526.99
678.877	3561.16
679.319	3562.86
679.761	3600.57
680.203	3625.01
680.645	3632.43
681.087	3650.81
681.529	3666.22
681.97	3709.29
682.412	3706.75
682.854	3730.62
683.296	3742.11
683.737	3729.71
684.179	3759.82
684.621	3778.05
685.062	3772.66
685.504	3766.06
685.945	3784.49
686.387	3783.61
686.828	3792.81
687.27	3772.12
687.711	3772.34
688.153	3758.07
688.594	3780.48
689.035	3736.32
689.477	3734.6
689.918	3727.93
690.359	3714.94
690.801	3685.11
691.242	3677.6
691.683	3659.11
692.124	3627.43
692.565	3612.45
693.006	3599.75
693.447	3570.97
693.889	3551.09
694.33	3538.3
694.771	3505.32
695.211	3504.05
695.652	3484.2
696.093	3472.21
696.534	3467.54
696.975	3442.95
697.416	3432.38
697.857	3422.35
698.297	3424.79
698.738	3406.84
699.179	3409.02
699.619	3407.57
700.06	3385.75
700.501	3407.24
700.941	3384.15
701.382	3367.88
701.822	3374.48
702.263	3385.42
702.703	3370.31
703.144	3378.21
703.584	3382.65
704.025	3385.38
704.465	3370.67
704.905	3389.3
705.346	3395.41
705.786	3409.89
706.226	3429.78
706.666	3444.21
707.106	3452.76
707.547	3469.69
707.987	3494.58
708.427	3524.1
708.867	3535.61
709.307	3581.64
709.747	3603.84
710.187	3612
710.627	3647.32
711.067	3656.52
711.507	3682.67
711.947	3682.84
712.386	3693.24
712.826	3705.52
713.266	3714.02
713.706	3726.2
714.145	3718.58
714.585	3712.74
715.025	3747.49
715.464	3688.28
715.904	3681.82
716.344	3647.9
716.783	3649.92
717.223	3613.84
717.662	3592.32
718.102	3582.05
718.541	3546.38
718.98	3515.93
719.42	3503.07
719.859	3490.54
720.298	3474.12
720.738	3467.08
721.177	3445.9
721.616	3428.85
722.055	3422.27
722.495	3420.39
722.934	3423.53
723.373	3412.84
723.812	3432.49
724.251	3432.02
724.69	3433.21
725.129	3447.3
725.568	3467.96
726.007	3495.37
726.446	3522.31
726.885	3559.05
727.323	3578.5
727.762	3608.02
728.201	3636.8
728.64	3671.83
729.079	3712.75
729.517	3761.01
729.956	3785.53
730.395	3824.3
730.833	3851.09
731.272	3872.98
731.71	3882.94
732.149	3892.37
732.587	3887.34
733.026	3871.64
733.464	3882.33
733.903	3857.75
734.341	3833.42
734.779	3819.08
735.218	3793.72
735.656	3772.58
736.094	3748.79
736.532	3726.11
736.971	3698.35
737.409	3676.17
737.847	3675.36
738.285	3667.98
738.723	3672.54
739.161	3661.83
739.599	3645.87
740.037	3694.42
740.475	3657.51
740.913	3665.91
741.351	3646.44
741.789	3653.85
742.227	3639.5
742.665	3645.62
743.102	3643.49
743.54	3623.22
743.978	3624.07
744.416	3604.47
744.853	3596.24
745.291	3572.54
745.729	3564.92
746.166	3557.36
746.604	3548.55
747.041	3534.96
747.479	3536.24
747.916	3528.95
748.354	3521.49
748.791	3521.5
749.228	3504.04
749.666	3499.81
750.103	3501.94
750.54	3495.98
750.978	3473.8
751.415	3475.59
751.852	3469.73
752.289	3473.41
752.726	3442.69
753.164	3432.8
753.601	3423.93
754.038	3420.33
754.475	3413.5
754.912	3405.58
755.349	3399.69
755.786	3388.19
756.223	3396.06
756.659	3421.36
757.096	3440.54
757.533	3444.99
757.97	3465.22
758.407	3503.46
758.843	3548.7
759.28	3617.81
759.717	3720.57
760.153	3886.47
760.59	4055.17
761.027	4224.04
761.463	4412.09
761.9	4537.73
762.336	4649.98
762.773	4730.18
763.209	4772.03
763.646	4796.39
764.082	4810.03
764.518	4813.86
764.955	4779.26
765.391	4718.81
765.827	4650.61
766.263	4544.79
766.7	4408.32
767.136	4190.12
767.572	4019.99
768.008	3860.35
768.444	3687.66
768.88	3538.13
769.316	3428.19
769.752	3331.4
770.188	3225.48
770.624	3182.31
771.06	3129.06
771.496	3095.49
771.932	3045.69
772.367	3002.11
772.803	2987.35
773.239	2932.58
773.675	2920.91
774.11	2900.78
774.546	2883.52
774.982	2843.1
775.417	2835.72
775.853	2809.72
776.288	2798.84
776.724	2778.3
777.159	2765.55
777.595	2737.96
